#F U:\Beamline I20\I20-1_EDE\Wigglers\xop\83mm-small-wiggler\EDE line ranges\0p74T-300mA-0p12x1.0mrad.dat
#C I20EDE 0.74T 300mA 0.12x1.0mrad
#S 1 File written by xplot on Tue Sep 10 16:40:51 2013
#N 2
#L    Energy [eV]  Flux [ph/s/0.1%bw]
50 9.74291E+012 
100 1.54296E+013 
150 2.015E+013 
200 2.43105E+013 
250 2.808E+013 
300 3.155E+013 
350 3.47769E+013 
400 3.77989E+013 
450 4.06437E+013 
500 4.33318E+013 
550 4.58794E+013 
600 4.82994E+013 
650 5.06025E+013 
700 5.27974E+013 
750 5.48917E+013 
800 5.68919E+013 
850 5.88037E+013 
900 6.06319E+013 
950 6.23812E+013 
1000 6.40554E+013 
1050 6.56581E+013 
1100 6.71926E+013 
1150 6.86619E+013 
1200 7.00688E+013 
1250 7.14157E+013 
1300 7.27051E+013 
1350 7.39391E+013 
1400 7.51199E+013 
1450 7.62492E+013 
1500 7.7329E+013 
1550 7.8361E+013 
1600 7.93467E+013 
1650 8.02877E+013 
1700 8.11855E+013 
1750 8.20414E+013 
1800 8.28568E+013 
1850 8.36329E+013 
1900 8.4371E+013 
1950 8.50722E+013 
2000 8.57377E+013 
2050 8.63684E+013 
2100 8.69654E+013 
2150 8.75297E+013 
2200 8.80623E+013 
2250 8.85641E+013 
2300 8.90359E+013 
2350 8.94786E+013 
2400 8.98931E+013 
2450 9.02802E+013 
2500 9.06405E+013 
2550 9.09749E+013 
2600 9.12842E+013 
2650 9.15689E+013 
2700 9.18299E+013 
2750 9.20677E+013 
2800 9.2283E+013 
2850 9.24764E+013 
2900 9.26486E+013 
2950 9.28001E+013 
3000 9.29315E+013 
3050 9.30434E+013 
3100 9.31363E+013 
3150 9.32107E+013 
3200 9.32672E+013 
3250 9.33063E+013 
3300 9.33284E+013 
3350 9.33341E+013 
3400 9.33238E+013 
3450 9.32978E+013 
3500 9.32569E+013 
3550 9.32012E+013 
3600 9.31312E+013 
3650 9.30475E+013 
3700 9.29503E+013 
3750 9.284E+013 
3800 9.2717E+013 
3850 9.25818E+013 
3900 9.24346E+013 
3950 9.22758E+013 
4000 9.21058E+013 
4050 9.19249E+013 
4100 9.17334E+013 
4150 9.15317E+013 
4200 9.132E+013 
4250 9.10987E+013 
4300 9.0868E+013 
4350 9.06283E+013 
4400 9.03799E+013 
4450 9.0123E+013 
4500 8.98578E+013 
4550 8.95847E+013 
4600 8.9304E+013 
4650 8.90158E+013 
4700 8.87205E+013 
4750 8.84182E+013 
4800 8.81092E+013 
4850 8.77938E+013 
4900 8.74721E+013 
4950 8.71443E+013 
5000 8.68108E+013 
5050 8.64717E+013 
5100 8.61271E+013 
5150 8.57774E+013 
5200 8.54227E+013 
5250 8.50632E+013 
5300 8.46991E+013 
5350 8.43306E+013 
5400 8.39577E+013 
5450 8.35808E+013 
5500 8.32E+013 
5550 8.28155E+013 
5600 8.24274E+013 
5650 8.20358E+013 
5700 8.1641E+013 
5750 8.1243E+013 
5800 8.08421E+013 
5850 8.04384E+013 
5900 8.00319E+013 
5950 7.96229E+013 
6000 7.92116E+013 
6050 7.87979E+013 
6100 7.8382E+013 
6150 7.79642E+013 
6200 7.75444E+013 
6250 7.71229E+013 
6300 7.66996E+013 
6350 7.62748E+013 
6400 7.58486E+013 
6450 7.5421E+013 
6500 7.49922E+013 
6550 7.45622E+013 
6600 7.41312E+013 
6650 7.36992E+013 
6700 7.32665E+013 
6750 7.28329E+013 
6800 7.23987E+013 
6850 7.19639E+013 
6900 7.15287E+013 
6950 7.1093E+013 
7000 7.06571E+013 
7050 7.02208E+013 
7100 6.97844E+013 
7150 6.9348E+013 
7200 6.89115E+013 
7250 6.8475E+013 
7300 6.80387E+013 
7350 6.76026E+013 
7400 6.71667E+013 
7450 6.67311E+013 
7500 6.6296E+013 
7550 6.58613E+013 
7600 6.5427E+013 
7650 6.49934E+013 
7700 6.45604E+013 
7750 6.4128E+013 
7800 6.36964E+013 
7850 6.32655E+013 
7900 6.28355E+013 
7950 6.24063E+013 
8000 6.19781E+013 
8050 6.15508E+013 
8100 6.11245E+013 
8150 6.06993E+013 
8200 6.02752E+013 
8250 5.98522E+013 
8300 5.94304E+013 
8350 5.90098E+013 
8400 5.85905E+013 
8450 5.81724E+013 
8500 5.77557E+013 
8550 5.73403E+013 
8600 5.69263E+013 
8650 5.65137E+013 
8700 5.61026E+013 
8750 5.56929E+013 
8800 5.52848E+013 
8850 5.48782E+013 
8900 5.44731E+013 
8950 5.40696E+013 
9000 5.36678E+013 
9050 5.32675E+013 
9100 5.28689E+013 
9150 5.2472E+013 
9200 5.20768E+013 
9250 5.16833E+013 
9300 5.12915E+013 
9350 5.09015E+013 
9400 5.05133E+013 
9450 5.01268E+013 
9500 4.97422E+013 
9550 4.93594E+013 
9600 4.89784E+013 
9650 4.85993E+013 
9700 4.8222E+013 
9750 4.78466E+013 
9800 4.74731E+013 
9850 4.71015E+013 
9900 4.67318E+013 
9950 4.63641E+013 
10000 4.59983E+013 
10050 4.56344E+013 
10100 4.52724E+013 
10150 4.49125E+013 
10200 4.45545E+013 
10250 4.41984E+013 
10300 4.38444E+013 
10350 4.34923E+013 
10400 4.31422E+013 
10450 4.27942E+013 
10500 4.24481E+013 
10550 4.2104E+013 
10600 4.1762E+013 
10650 4.14219E+013 
10700 4.10839E+013 
10750 4.07479E+013 
10800 4.0414E+013 
10850 4.0082E+013 
10900 3.97521E+013 
10950 3.94242E+013 
11000 3.90983E+013 
11050 3.87745E+013 
11100 3.84527E+013 
11150 3.81329E+013 
11200 3.78152E+013 
11250 3.74994E+013 
11300 3.71857E+013 
11350 3.68741E+013 
11400 3.65644E+013 
11450 3.62568E+013 
11500 3.59512E+013 
11550 3.56476E+013 
11600 3.5346E+013 
11650 3.50465E+013 
11700 3.47489E+013 
11750 3.44534E+013 
11800 3.41598E+013 
11850 3.38683E+013 
11900 3.35787E+013 
11950 3.32911E+013 
12000 3.30056E+013 
12050 3.27219E+013 
12100 3.24403E+013 
12150 3.21606E+013 
12200 3.18829E+013 
12250 3.16072E+013 
12300 3.13334E+013 
12350 3.10615E+013 
12400 3.07916E+013 
12450 3.05237E+013 
12500 3.02576E+013 
12550 2.99935E+013 
12600 2.97313E+013 
12650 2.9471E+013 
12700 2.92125E+013 
12750 2.8956E+013 
12800 2.87014E+013 
12850 2.84487E+013 
12900 2.81978E+013 
12950 2.79488E+013 
13000 2.77016E+013 
13050 2.74563E+013 
13100 2.72129E+013 
13150 2.69712E+013 
13200 2.67314E+013 
13250 2.64934E+013 
13300 2.62572E+013 
13350 2.60229E+013 
13400 2.57903E+013 
13450 2.55595E+013 
13500 2.53305E+013 
13550 2.51032E+013 
13600 2.48777E+013 
13650 2.46539E+013 
13700 2.44319E+013 
13750 2.42116E+013 
13800 2.39931E+013 
13850 2.37762E+013 
13900 2.35611E+013 
13950 2.33477E+013 
14000 2.31359E+013 
14050 2.29258E+013 
14100 2.27174E+013 
14150 2.25107E+013 
14200 2.23056E+013 
14250 2.21022E+013 
14300 2.19004E+013 
14350 2.17002E+013 
14400 2.15016E+013 
14450 2.13046E+013 
14500 2.11092E+013 
14550 2.09154E+013 
14600 2.07232E+013 
14650 2.05326E+013 
14700 2.03435E+013 
14750 2.01559E+013 
14800 1.99699E+013 
14850 1.97855E+013 
14900 1.96025E+013 
14950 1.94211E+013 
15000 1.92411E+013 
15050 1.90627E+013 
15100 1.88857E+013 
15150 1.87102E+013 
15200 1.85362E+013 
15250 1.83636E+013 
15300 1.81925E+013 
15350 1.80228E+013 
15400 1.78545E+013 
15450 1.76877E+013 
15500 1.75223E+013 
15550 1.73582E+013 
15600 1.71956E+013 
15650 1.70343E+013 
15700 1.68744E+013 
15750 1.67159E+013 
15800 1.65587E+013 
15850 1.64028E+013 
15900 1.62483E+013 
15950 1.60951E+013 
16000 1.59433E+013 
16050 1.57927E+013 
16100 1.56434E+013 
16150 1.54955E+013 
16200 1.53488E+013 
16250 1.52033E+013 
16300 1.50592E+013 
16350 1.49162E+013 
16400 1.47746E+013 
16450 1.46341E+013 
16500 1.44949E+013 
16550 1.43569E+013 
16600 1.42201E+013 
16650 1.40845E+013 
16700 1.39501E+013 
16750 1.38169E+013 
16800 1.36849E+013 
16850 1.3554E+013 
16900 1.34242E+013 
16950 1.32957E+013 
17000 1.31682E+013 
17050 1.30419E+013 
17100 1.29167E+013 
17150 1.27926E+013 
17200 1.26696E+013 
17250 1.25478E+013 
17300 1.24269E+013 
17350 1.23072E+013 
17400 1.21886E+013 
17450 1.2071E+013 
17500 1.19545E+013 
17550 1.1839E+013 
17600 1.17245E+013 
17650 1.16111E+013 
17700 1.14987E+013 
17750 1.13873E+013 
17800 1.1277E+013 
17850 1.11676E+013 
17900 1.10592E+013 
17950 1.09518E+013 
18000 1.08454E+013 
18050 1.07399E+013 
18100 1.06354E+013 
18150 1.05319E+013 
18200 1.04292E+013 
18250 1.03276E+013 
18300 1.02268E+013 
18350 1.0127E+013 
18400 1.00281E+013 
18450 9.93009E+012 
18500 9.83299E+012 
18550 9.73677E+012 
18600 9.64145E+012 
18650 9.547E+012 
18700 9.45342E+012 
18750 9.3607E+012 
18800 9.26884E+012 
18850 9.17783E+012 
18900 9.08766E+012 
18950 8.99833E+012 
19000 8.90982E+012 
19050 8.82214E+012 
19100 8.73526E+012 
19150 8.6492E+012 
19200 8.56394E+012 
19250 8.47947E+012 
19300 8.39579E+012 
19350 8.31289E+012 
19400 8.23076E+012 
19450 8.1494E+012 
19500 8.0688E+012 
19550 7.98896E+012 
19600 7.90986E+012 
19650 7.83151E+012 
19700 7.75389E+012 
19750 7.67701E+012 
19800 7.60084E+012 
19850 7.5254E+012 
19900 7.45066E+012 
19950 7.37663E+012 
20000 7.3033E+012 
20050 7.23066E+012 
20100 7.1587E+012 
20150 7.08743E+012 
20200 7.01683E+012 
20250 6.9469E+012 
20300 6.87764E+012 
20350 6.80903E+012 
20400 6.74107E+012 
20450 6.67376E+012 
20500 6.60709E+012 
20550 6.54106E+012 
20600 6.47565E+012 
20650 6.41087E+012 
20700 6.34671E+012 
20750 6.28316E+012 
20800 6.22021E+012 
20850 6.15787E+012 
20900 6.09613E+012 
20950 6.03498E+012 
21000 5.97441E+012 
21050 5.91442E+012 
21100 5.85502E+012 
21150 5.79618E+012 
21200 5.7379E+012 
21250 5.68019E+012 
21300 5.62304E+012 
21350 5.56643E+012 
21400 5.51037E+012 
21450 5.45485E+012 
21500 5.39987E+012 
21550 5.34542E+012 
21600 5.29149E+012 
21650 5.23809E+012 
21700 5.1852E+012 
21750 5.13283E+012 
21800 5.08096E+012 
21850 5.0296E+012 
21900 4.97873E+012 
21950 4.92836E+012 
22000 4.87848E+012 
22050 4.82909E+012 
22100 4.78017E+012 
22150 4.73173E+012 
22200 4.68377E+012 
22250 4.63627E+012 
22300 4.58923E+012 
22350 4.54265E+012 
22400 4.49653E+012 
22450 4.45086E+012 
22500 4.40564E+012 
22550 4.36086E+012 
22600 4.31651E+012 
22650 4.2726E+012 
22700 4.22913E+012 
22750 4.18607E+012 
22800 4.14344E+012 
22850 4.10123E+012 
22900 4.05944E+012 
22950 4.01805E+012 
23000 3.97707E+012 
23050 3.9365E+012 
23100 3.89632E+012 
23150 3.85654E+012 
23200 3.81716E+012 
23250 3.77816E+012 
23300 3.73954E+012 
23350 3.70131E+012 
23400 3.66346E+012 
23450 3.62598E+012 
23500 3.58887E+012 
23550 3.55213E+012 
23600 3.51575E+012 
23650 3.47973E+012 
23700 3.44407E+012 
23750 3.40876E+012 
23800 3.3738E+012 
23850 3.33919E+012 
23900 3.30492E+012 
23950 3.271E+012 
24000 3.23741E+012 
24050 3.20415E+012 
24100 3.17123E+012 
24150 3.13863E+012 
24200 3.10636E+012 
24250 3.07441E+012 
24300 3.04278E+012 
24350 3.01147E+012 
24400 2.98047E+012 
24450 2.94977E+012 
24500 2.91939E+012 
24550 2.8893E+012 
24600 2.85952E+012 
24650 2.83004E+012 
24700 2.80085E+012 
24750 2.77195E+012 
24800 2.74334E+012 
24850 2.71502E+012 
24900 2.68698E+012 
24950 2.65923E+012 
25000 2.63175E+012 
25050 2.60455E+012 
25100 2.57762E+012 
25150 2.55097E+012 
25200 2.52458E+012 
25250 2.49845E+012 
25300 2.47259E+012 
25350 2.44699E+012 
25400 2.42165E+012 
25450 2.39656E+012 
25500 2.37173E+012 
25550 2.34714E+012 
25600 2.32281E+012 
25650 2.29872E+012 
25700 2.27487E+012 
25750 2.25126E+012 
25800 2.2279E+012 
25850 2.20476E+012 
25900 2.18187E+012 
25950 2.1592E+012 
26000 2.13677E+012 
26050 2.11456E+012 
26100 2.09257E+012 
26150 2.07081E+012 
26200 2.04927E+012 
26250 2.02795E+012 
26300 2.00684E+012 
26350 1.98595E+012 
26400 1.96527E+012 
26450 1.9448E+012 
26500 1.92454E+012 
26550 1.90448E+012 
26600 1.88463E+012 
26650 1.86498E+012 
26700 1.84553E+012 
26750 1.82628E+012 
26800 1.80722E+012 
26850 1.78836E+012 
26900 1.76969E+012 
26950 1.75121E+012 
27000 1.73292E+012 
27050 1.71482E+012 
27100 1.6969E+012 
27150 1.67916E+012 
27200 1.6616E+012 
27250 1.64423E+012 
27300 1.62703E+012 
27350 1.61001E+012 
27400 1.59316E+012 
27450 1.57648E+012 
27500 1.55998E+012 
27550 1.54364E+012 
27600 1.52747E+012 
27650 1.51147E+012 
27700 1.49563E+012 
27750 1.47995E+012 
27800 1.46444E+012 
27850 1.44908E+012 
27900 1.43388E+012 
27950 1.41884E+012 
28000 1.40395E+012 
28050 1.38921E+012 
28100 1.37463E+012 
28150 1.36019E+012 
28200 1.3459E+012 
28250 1.33177E+012 
28300 1.31777E+012 
28350 1.30392E+012 
28400 1.29021E+012 
28450 1.27665E+012 
28500 1.26322E+012 
28550 1.24993E+012 
28600 1.23678E+012 
28650 1.22377E+012 
28700 1.21089E+012 
28750 1.19814E+012 
28800 1.18552E+012 
28850 1.17303E+012 
28900 1.16068E+012 
28950 1.14845E+012 
29000 1.13634E+012 
29050 1.12436E+012 
29100 1.11251E+012 
29150 1.10078E+012 
29200 1.08917E+012 
29250 1.07768E+012 
29300 1.0663E+012 
29350 1.05505E+012 
29400 1.04391E+012 
29450 1.03289E+012 
29500 1.02198E+012 
29550 1.01119E+012 
29600 1.00051E+012 
29650 9.89935E+011 
29700 9.79472E+011 
29750 9.69118E+011 
29800 9.58872E+011 
29850 9.48732E+011 
29900 9.38698E+011 
29950 9.28767E+011 
30000 9.1894E+011 
30050 9.09215E+011 
30100 8.99591E+011 
30150 8.90067E+011 
30200 8.80642E+011 
30250 8.71316E+011 
30300 8.62086E+011 
30350 8.52952E+011 
30400 8.43914E+011 
30450 8.3497E+011 
30500 8.26119E+011 
30550 8.1736E+011 
30600 8.08692E+011 
30650 8.00115E+011 
30700 7.91627E+011 
30750 7.83228E+011 
30800 7.74916E+011 
30850 7.66691E+011 
30900 7.58552E+011 
30950 7.50498E+011 
31000 7.42528E+011 
31050 7.34642E+011 
31100 7.26838E+011 
31150 7.19115E+011 
31200 7.11473E+011 
31250 7.03911E+011 
31300 6.96428E+011 
31350 6.89023E+011 
31400 6.81696E+011 
31450 6.74446E+011 
31500 6.67271E+011 
31550 6.60172E+011 
31600 6.53147E+011 
31650 6.46195E+011 
31700 6.39317E+011 
31750 6.3251E+011 
31800 6.25775E+011 
31850 6.19111E+011 
31900 6.12516E+011 
31950 6.05991E+011 
32000 5.99534E+011 
32050 5.93145E+011 
32100 5.86822E+011 
32150 5.80567E+011 
32200 5.74377E+011 
32250 5.68252E+011 
32300 5.62191E+011 
32350 5.56194E+011 
32400 5.5026E+011 
32450 5.44389E+011 
32500 5.38579E+011 
32550 5.3283E+011 
32600 5.27142E+011 
32650 5.21514E+011 
32700 5.15945E+011 
32750 5.10434E+011 
32800 5.04982E+011 
32850 4.99587E+011 
32900 4.94249E+011 
32950 4.88967E+011 
33000 4.83741E+011 
33050 4.78569E+011 
33100 4.73453E+011 
33150 4.6839E+011 
33200 4.63381E+011 
33250 4.58424E+011 
33300 4.5352E+011 
33350 4.48668E+011 
33400 4.43867E+011 
33450 4.39116E+011 
33500 4.34416E+011 
33550 4.29765E+011 
33600 4.25164E+011 
33650 4.20611E+011 
33700 4.16106E+011 
33750 4.11649E+011 
33800 4.07239E+011 
33850 4.02876E+011 
33900 3.98558E+011 
33950 3.94287E+011 
34000 3.9006E+011 
34050 3.85879E+011 
34100 3.81741E+011 
34150 3.77648E+011 
34200 3.73597E+011 
34250 3.6959E+011 
34300 3.65625E+011 
34350 3.61702E+011 
34400 3.57821E+011 
34450 3.53981E+011 
34500 3.50181E+011 
34550 3.46422E+011 
34600 3.42702E+011 
34650 3.39023E+011 
34700 3.35382E+011 
34750 3.31779E+011 
34800 3.28215E+011 
34850 3.24689E+011 
34900 3.212E+011 
34950 3.17749E+011 
35000 3.14334E+011 
35050 3.10955E+011 
35100 3.07612E+011 
35150 3.04304E+011 
35200 3.01032E+011 
35250 2.97795E+011 
35300 2.94592E+011 
35350 2.91423E+011 
35400 2.88287E+011 
35450 2.85186E+011 
35500 2.82116E+011 
35550 2.7908E+011 
35600 2.76076E+011 
35650 2.73104E+011 
35700 2.70164E+011 
35750 2.67255E+011 
35800 2.64377E+011 
35850 2.61529E+011 
35900 2.58712E+011 
35950 2.55925E+011 
36000 2.53168E+011 
36050 2.50439E+011 
36100 2.4774E+011 
36150 2.4507E+011 
36200 2.42428E+011 
36250 2.39815E+011 
36300 2.37229E+011 
36350 2.34671E+011 
36400 2.3214E+011 
36450 2.29637E+011 
36500 2.2716E+011 
36550 2.24709E+011 
36600 2.22284E+011 
36650 2.19886E+011 
36700 2.17513E+011 
36750 2.15165E+011 
36800 2.12842E+011 
36850 2.10545E+011 
36900 2.08272E+011 
36950 2.06023E+011 
37000 2.03798E+011 
37050 2.01597E+011 
37100 1.99419E+011 
37150 1.97265E+011 
37200 1.95134E+011 
37250 1.93025E+011 
37300 1.90939E+011 
37350 1.88876E+011 
37400 1.86834E+011 
37450 1.84815E+011 
37500 1.82817E+011 
37550 1.8084E+011 
37600 1.78884E+011 
37650 1.7695E+011 
37700 1.75036E+011 
37750 1.73143E+011 
37800 1.7127E+011 
37850 1.69417E+011 
37900 1.67584E+011 
37950 1.6577E+011 
38000 1.63976E+011 
38050 1.62201E+011 
38100 1.60445E+011 
38150 1.58708E+011 
38200 1.5699E+011 
38250 1.5529E+011 
38300 1.53609E+011 
38350 1.51945E+011 
38400 1.50299E+011 
38450 1.48671E+011 
38500 1.47061E+011 
38550 1.45467E+011 
38600 1.43891E+011 
38650 1.42332E+011 
38700 1.40789E+011 
38750 1.39263E+011 
38800 1.37754E+011 
38850 1.3626E+011 
38900 1.34783E+011 
38950 1.33321E+011 
39000 1.31876E+011 
39050 1.30446E+011 
39100 1.29031E+011 
39150 1.27631E+011 
39200 1.26247E+011 
39250 1.24877E+011 
39300 1.23522E+011 
39350 1.22182E+011 
39400 1.20856E+011 
39450 1.19544E+011 
39500 1.18246E+011 
39550 1.16963E+011 
39600 1.15693E+011 
39650 1.14437E+011 
39700 1.13194E+011 
39750 1.11965E+011 
39800 1.10749E+011 
39850 1.09546E+011 
39900 1.08356E+011 
39950 1.07179E+011 
40000 1.06015E+011 
40050 1.04863E+011 
40100 1.03723E+011 
40150 1.02596E+011 
40200 1.01481E+011 
40250 1.00378E+011 
40300 9.92869E+010 
40350 9.82075E+010 
40400 9.71398E+010 
40450 9.60836E+010 
40500 9.50388E+010 
40550 9.40052E+010 
40600 9.29828E+010 
40650 9.19715E+010 
40700 9.0971E+010 
40750 8.99814E+010 
40800 8.90024E+010 
40850 8.8034E+010 
40900 8.70761E+010 
40950 8.61285E+010 
41000 8.51911E+010 
41050 8.42639E+010 
41100 8.33466E+010 
41150 8.24393E+010 
41200 8.15418E+010 
41250 8.0654E+010 
41300 7.97758E+010 
41350 7.8907E+010 
41400 7.80477E+010 
41450 7.71976E+010 
41500 7.63567E+010 
41550 7.5525E+010 
41600 7.47022E+010 
41650 7.38883E+010 
41700 7.30832E+010 
41750 7.22869E+010 
41800 7.14991E+010 
41850 7.07199E+010 
41900 6.99491E+010 
41950 6.91866E+010 
42000 6.84324E+010 
42050 6.76863E+010 
42100 6.69484E+010 
42150 6.62184E+010 
42200 6.54963E+010 
42250 6.4782E+010 
42300 6.40755E+010 
42350 6.33766E+010 
42400 6.26853E+010 
42450 6.20015E+010 
42500 6.13251E+010 
42550 6.0656E+010 
42600 5.99941E+010 
42650 5.93395E+010 
42700 5.86919E+010 
42750 5.80514E+010 
42800 5.74178E+010 
42850 5.6791E+010 
42900 5.61711E+010 
42950 5.55579E+010 
43000 5.49513E+010 
43050 5.43513E+010 
43100 5.37578E+010 
43150 5.31708E+010 
43200 5.25901E+010 
43250 5.20157E+010 
43300 5.14475E+010 
43350 5.08856E+010 
43400 5.03297E+010 
43450 4.97798E+010 
43500 4.92359E+010 
43550 4.8698E+010 
43600 4.81658E+010 
43650 4.76395E+010 
43700 4.71188E+010 
43750 4.66038E+010 
43800 4.60944E+010 
43850 4.55905E+010 
43900 4.50922E+010 
43950 4.45992E+010 
44000 4.41115E+010 
44050 4.36292E+010 
44100 4.31521E+010 
44150 4.26802E+010 
44200 4.22134E+010 
44250 4.17517E+010 
44300 4.12951E+010 
44350 4.08434E+010 
44400 4.03966E+010 
44450 3.99546E+010 
44500 3.95175E+010 
44550 3.90851E+010 
44600 3.86574E+010 
44650 3.82343E+010 
44700 3.78159E+010 
44750 3.7402E+010 
44800 3.69927E+010 
44850 3.65877E+010 
44900 3.61872E+010 
44950 3.5791E+010 
45000 3.53992E+010 
45050 3.50116E+010 
45100 3.46282E+010 
45150 3.42491E+010 
45200 3.3874E+010 
45250 3.3503E+010 
45300 3.31361E+010 
45350 3.27731E+010 
45400 3.24141E+010 
45450 3.2059E+010 
45500 3.17078E+010 
45550 3.13604E+010 
45600 3.10168E+010 
45650 3.0677E+010 
45700 3.03408E+010 
45750 3.00083E+010 
45800 2.96794E+010 
45850 2.93541E+010 
45900 2.90324E+010 
45950 2.87142E+010 
46000 2.83994E+010 
46050 2.80881E+010 
46100 2.77801E+010 
46150 2.74755E+010 
46200 2.71743E+010 
46250 2.68763E+010 
46300 2.65816E+010 
46350 2.629E+010 
46400 2.60017E+010 
46450 2.57165E+010 
46500 2.54344E+010 
46550 2.51555E+010 
46600 2.48795E+010 
46650 2.46066E+010 
46700 2.43366E+010 
46750 2.40696E+010 
46800 2.38055E+010 
46850 2.35442E+010 
46900 2.32859E+010 
46950 2.30303E+010 
47000 2.27776E+010 
47050 2.25275E+010 
47100 2.22803E+010 
47150 2.20357E+010 
47200 2.17938E+010 
47250 2.15546E+010 
47300 2.13179E+010 
47350 2.10839E+010 
47400 2.08523E+010 
47450 2.06234E+010 
47500 2.03969E+010 
47550 2.01729E+010 
47600 1.99513E+010 
47650 1.97322E+010 
47700 1.95155E+010 
47750 1.93011E+010 
47800 1.90891E+010 
47850 1.88794E+010 
47900 1.8672E+010 
47950 1.84668E+010 
48000 1.82639E+010 
48050 1.80632E+010 
48100 1.78647E+010 
48150 1.76684E+010 
48200 1.74743E+010 
48250 1.72822E+010 
48300 1.70923E+010 
48350 1.69044E+010 
48400 1.67186E+010 
48450 1.65348E+010 
48500 1.6353E+010 
48550 1.61732E+010 
48600 1.59954E+010 
48650 1.58195E+010 
48700 1.56456E+010 
48750 1.54736E+010 
48800 1.53034E+010 
48850 1.51351E+010 
48900 1.49687E+010 
48950 1.4804E+010 
49000 1.46412E+010 
49050 1.44801E+010 
49100 1.43209E+010 
49150 1.41633E+010 
49200 1.40075E+010 
49250 1.38534E+010 
49300 1.3701E+010 
49350 1.35502E+010 
49400 1.34011E+010 
49450 1.32537E+010 
49500 1.31078E+010 
49550 1.29636E+010 
49600 1.28209E+010 
49650 1.26798E+010 
49700 1.25402E+010 
49750 1.24022E+010 
49800 1.22657E+010 
49850 1.21307E+010 
49900 1.19971E+010 
49950 1.1865E+010 
50000 1.17344E+010 
50050 1.16052E+010 
50100 1.14774E+010 
50150 1.1351E+010 
50200 1.1226E+010 
50250 1.11024E+010 
50300 1.09801E+010 
50350 1.08592E+010 
50400 1.07396E+010 
50450 1.06213E+010 
50500 1.05043E+010 
50550 1.03886E+010 
50600 1.02742E+010 
50650 1.0161E+010 
50700 1.0049E+010 
50750 9.9383E+009 
50800 9.8288E+009 
50850 9.7205E+009 
50900 9.61339E+009 
50950 9.50745E+009 
51000 9.40268E+009 
51050 9.29905E+009 
51100 9.19657E+009 
51150 9.09521E+009 
51200 8.99496E+009 
51250 8.89581E+009 
51300 8.79775E+009 
51350 8.70077E+009 
51400 8.60485E+009 
51450 8.50998E+009 
51500 8.41616E+009 
51550 8.32336E+009 
51600 8.23159E+009 
51650 8.14082E+009 
51700 8.05106E+009 
51750 7.96227E+009 
51800 7.87446E+009 
51850 7.78762E+009 
51900 7.70173E+009 
51950 7.61679E+009 
52000 7.53277E+009 
52050 7.44968E+009 
52100 7.36751E+009 
52150 7.28624E+009 
52200 7.20585E+009 
52250 7.12636E+009 
52300 7.04773E+009 
52350 6.96998E+009 
52400 6.89307E+009 
52450 6.81701E+009 
52500 6.74179E+009 
52550 6.66739E+009 
52600 6.59382E+009 
52650 6.52105E+009 
52700 6.44908E+009 
52750 6.3779E+009 
52800 6.30751E+009 
52850 6.23789E+009 
52900 6.16903E+009 
52950 6.10093E+009 
53000 6.03359E+009 
53050 5.96698E+009 
53100 5.9011E+009 
53150 5.83595E+009 
53200 5.77152E+009 
53250 5.70779E+009 
53300 5.64477E+009 
53350 5.58244E+009 
53400 5.52079E+009 
53450 5.45983E+009 
53500 5.39953E+009 
53550 5.3399E+009 
53600 5.28093E+009 
53650 5.2226E+009 
53700 5.16491E+009 
53750 5.10786E+009 
53800 5.05144E+009 
53850 4.99564E+009 
53900 4.94045E+009 
53950 4.88588E+009 
54000 4.8319E+009 
54050 4.77851E+009 
54100 4.72572E+009 
54150 4.6735E+009 
54200 4.62186E+009 
54250 4.57079E+009 
54300 4.52029E+009 
54350 4.47033E+009 
54400 4.42093E+009 
54450 4.37207E+009 
54500 4.32375E+009 
54550 4.27597E+009 
54600 4.22871E+009 
54650 4.18197E+009 
54700 4.13574E+009 
54750 4.09002E+009 
54800 4.04481E+009 
54850 4.0001E+009 
54900 3.95588E+009 
54950 3.91214E+009 
55000 3.86889E+009 
55050 3.82611E+009 
55100 3.78381E+009 
55150 3.74197E+009 
55200 3.70059E+009 
55250 3.65967E+009 
55300 3.6192E+009 
55350 3.57918E+009 
55400 3.5396E+009 
55450 3.50045E+009 
55500 3.46174E+009 
55550 3.42345E+009 
55600 3.38558E+009 
55650 3.34813E+009 
55700 3.3111E+009 
55750 3.27447E+009 
55800 3.23825E+009 
55850 3.20243E+009 
55900 3.167E+009 
55950 3.13196E+009 
56000 3.09731E+009 
56050 3.06304E+009 
56100 3.02915E+009 
56150 2.99563E+009 
56200 2.96249E+009 
56250 2.9297E+009 
56300 2.89729E+009 
56350 2.86522E+009 
56400 2.83351E+009 
56450 2.80216E+009 
56500 2.77114E+009 
56550 2.74047E+009 
56600 2.71014E+009 
56650 2.68014E+009 
56700 2.65048E+009 
56750 2.62114E+009 
56800 2.59212E+009 
56850 2.56343E+009 
56900 2.53505E+009 
56950 2.50699E+009 
57000 2.47923E+009 
57050 2.45178E+009 
57100 2.42464E+009 
57150 2.39779E+009 
57200 2.37124E+009 
57250 2.34499E+009 
57300 2.31902E+009 
57350 2.29334E+009 
57400 2.26794E+009 
57450 2.24283E+009 
57500 2.21799E+009 
57550 2.19343E+009 
57600 2.16913E+009 
57650 2.14511E+009 
57700 2.12135E+009 
57750 2.09785E+009 
57800 2.07462E+009 
57850 2.05164E+009 
57900 2.02891E+009 
57950 2.00643E+009 
58000 1.98421E+009 
58050 1.96223E+009 
58100 1.94049E+009 
58150 1.91899E+009 
58200 1.89773E+009 
58250 1.8767E+009 
58300 1.85591E+009 
58350 1.83534E+009 
58400 1.81501E+009 
58450 1.79489E+009 
58500 1.775E+009 
58550 1.75533E+009 
58600 1.73588E+009 
58650 1.71664E+009 
58700 1.69762E+009 
58750 1.6788E+009 
58800 1.6602E+009 
58850 1.6418E+009 
58900 1.6236E+009 
58950 1.6056E+009 
59000 1.58781E+009 
59050 1.57021E+009 
59100 1.5528E+009 
59150 1.53559E+009 
59200 1.51856E+009 
59250 1.50173E+009 
59300 1.48508E+009 
59350 1.46861E+009 
59400 1.45233E+009 
59450 1.43623E+009 
59500 1.4203E+009 
59550 1.40456E+009 
59600 1.38898E+009 
59650 1.37358E+009 
59700 1.35835E+009 
59750 1.34328E+009 
59800 1.32839E+009 
59850 1.31366E+009 
59900 1.29909E+009 
59950 1.28468E+009 
60000 1.27043E+009 
60050 1.25634E+009 
60100 1.24241E+009 
60150 1.22863E+009 
60200 1.215E+009 
60250 1.20152E+009 
60300 1.18819E+009 
60350 1.17501E+009 
60400 1.16198E+009 
60450 1.14909E+009 
60500 1.13634E+009 
60550 1.12374E+009 
60600 1.11127E+009 
60650 1.09894E+009 
60700 1.08675E+009 
60750 1.07469E+009 
60800 1.06276E+009 
60850 1.05097E+009 
60900 1.03931E+009 
60950 1.02778E+009 
61000 1.01637E+009 
61050 1.00509E+009 
61100 9.9394E+008 
61150 9.8291E+008 
61200 9.72002E+008 
61250 9.61214E+008 
61300 9.50546E+008 
61350 9.39997E+008 
61400 9.29564E+008 
61450 9.19246E+008 
61500 9.09043E+008 
61550 8.98953E+008 
61600 8.88974E+008 
61650 8.79106E+008 
61700 8.69348E+008 
61750 8.59697E+008 
61800 8.50154E+008 
61850 8.40716E+008 
61900 8.31382E+008 
61950 8.22152E+008 
62000 8.13025E+008 
62050 8.03998E+008 
62100 7.95071E+008 
62150 7.86244E+008 
62200 7.77514E+008 
62250 7.6888E+008 
62300 7.60343E+008 
62350 7.519E+008 
62400 7.43551E+008 
62450 7.35294E+008 
62500 7.27128E+008 
62550 7.19053E+008 
62600 7.11068E+008 
62650 7.03171E+008 
62700 6.95361E+008 
62750 6.87639E+008 
62800 6.80001E+008 
62850 6.72449E+008 
62900 6.6498E+008 
62950 6.57594E+008 
63000 6.50289E+008 
63050 6.43066E+008 
63100 6.35923E+008 
63150 6.28859E+008 
63200 6.21873E+008 
63250 6.14965E+008 
63300 6.08133E+008 
63350 6.01377E+008 
63400 5.94696E+008 
63450 5.88089E+008 
63500 5.81555E+008 
63550 5.75094E+008 
63600 5.68704E+008 
63650 5.62385E+008 
63700 5.56137E+008 
63750 5.49957E+008 
63800 5.43846E+008 
63850 5.37803E+008 
63900 5.31827E+008 
63950 5.25917E+008 
64000 5.20073E+008 
64050 5.14293E+008 
64100 5.08578E+008 
64150 5.02926E+008 
64200 4.97337E+008 
64250 4.91809E+008 
64300 4.86343E+008 
64350 4.80938E+008 
64400 4.75593E+008 
64450 4.70306E+008 
64500 4.65079E+008 
64550 4.59909E+008 
64600 4.54797E+008 
64650 4.49742E+008 
64700 4.44743E+008 
64750 4.39799E+008 
64800 4.3491E+008 
64850 4.30075E+008 
64900 4.25294E+008 
64950 4.20566E+008 
65000 4.1589E+008 
65050 4.11266E+008 
65100 4.06694E+008 
65150 4.02172E+008 
65200 3.97701E+008 
65250 3.93279E+008 
65300 3.88906E+008 
65350 3.84582E+008 
65400 3.80306E+008 
65450 3.76077E+008 
65500 3.71895E+008 
65550 3.6776E+008 
65600 3.6367E+008 
65650 3.59626E+008 
65700 3.55627E+008 
65750 3.51672E+008 
65800 3.47761E+008 
65850 3.43893E+008 
65900 3.40069E+008 
65950 3.36287E+008 
66000 3.32546E+008 
66050 3.28848E+008 
66100 3.2519E+008 
66150 3.21573E+008 
66200 3.17997E+008 
66250 3.14459E+008 
66300 3.10962E+008 
66350 3.07503E+008 
66400 3.04082E+008 
66450 3.00699E+008 
66500 2.97354E+008 
66550 2.94047E+008 
66600 2.90775E+008 
66650 2.87541E+008 
66700 2.84342E+008 
66750 2.81178E+008 
66800 2.7805E+008 
66850 2.74957E+008 
66900 2.71898E+008 
66950 2.68872E+008 
67000 2.65881E+008 
67050 2.62923E+008 
67100 2.59997E+008 
67150 2.57104E+008 
67200 2.54243E+008 
67250 2.51414E+008 
67300 2.48617E+008 
67350 2.4585E+008 
67400 2.43114E+008 
67450 2.40409E+008 
67500 2.37734E+008 
67550 2.35088E+008 
67600 2.32472E+008 
67650 2.29885E+008 
67700 2.27326E+008 
67750 2.24796E+008 
67800 2.22294E+008 
67850 2.1982E+008 
67900 2.17374E+008 
67950 2.14954E+008 
68000 2.12562E+008 
68050 2.10196E+008 
68100 2.07856E+008 
68150 2.05542E+008 
68200 2.03255E+008 
68250 2.00992E+008 
68300 1.98755E+008 
68350 1.96542E+008 
68400 1.94354E+008 
68450 1.92191E+008 
68500 1.90051E+008 
68550 1.87936E+008 
68600 1.85843E+008 
68650 1.83774E+008 
68700 1.81728E+008 
68750 1.79705E+008 
68800 1.77704E+008 
68850 1.75726E+008 
68900 1.73769E+008 
68950 1.71835E+008 
69000 1.69921E+008 
69050 1.68029E+008 
69100 1.66158E+008 
69150 1.64308E+008 
69200 1.62479E+008 
69250 1.6067E+008 
69300 1.5888E+008 
69350 1.57111E+008 
69400 1.55362E+008 
69450 1.53632E+008 
69500 1.51921E+008 
69550 1.50229E+008 
69600 1.48556E+008 
69650 1.46901E+008 
69700 1.45265E+008 
69750 1.43648E+008 
69800 1.42048E+008 
69850 1.40466E+008 
69900 1.38901E+008 
69950 1.37354E+008 
70000 1.35824E+008 
70050 1.34312E+008 
70100 1.32816E+008 
70150 1.31336E+008 
70200 1.29873E+008 
70250 1.28427E+008 
70300 1.26996E+008 
70350 1.25581E+008 
70400 1.24183E+008 
70450 1.22799E+008 
70500 1.21431E+008 
70550 1.20079E+008 
70600 1.18741E+008 
70650 1.17418E+008 
70700 1.1611E+008 
70750 1.14816E+008 
70800 1.13537E+008 
70850 1.12272E+008 
70900 1.11022E+008 
70950 1.09785E+008 
71000 1.08561E+008 
71050 1.07352E+008 
71100 1.06156E+008 
71150 1.04973E+008 
71200 1.03803E+008 
71250 1.02647E+008 
71300 1.01503E+008 
71350 1.00372E+008 
71400 9.92536E+007 
71450 9.81477E+007 
71500 9.7054E+007 
71550 9.59725E+007 
71600 9.4903E+007 
71650 9.38455E+007 
71700 9.27997E+007 
71750 9.17655E+007 
71800 9.07429E+007 
71850 8.97316E+007 
71900 8.87316E+007 
71950 8.77427E+007 
72000 8.67648E+007 
72050 8.57978E+007 
72100 8.48416E+007 
72150 8.3896E+007 
72200 8.2961E+007 
72250 8.20363E+007 
72300 8.1122E+007 
72350 8.02178E+007 
72400 7.93237E+007 
72450 7.84395E+007 
72500 7.75652E+007 
72550 7.67006E+007 
72600 7.58456E+007 
72650 7.50002E+007 
72700 7.41642E+007 
72750 7.33375E+007 
72800 7.25199E+007 
72850 7.17115E+007 
72900 7.09121E+007 
72950 7.01216E+007 
73000 6.93399E+007 
73050 6.85669E+007 
73100 6.78025E+007 
73150 6.70466E+007 
73200 6.62991E+007 
73250 6.55599E+007 
73300 6.4829E+007 
73350 6.41062E+007 
73400 6.33915E+007 
73450 6.26847E+007 
73500 6.19858E+007 
73550 6.12947E+007 
73600 6.06113E+007 
73650 5.99355E+007 
73700 5.92672E+007 
73750 5.86063E+007 
73800 5.79529E+007 
73850 5.73067E+007 
73900 5.66676E+007 
73950 5.60358E+007 
74000 5.54109E+007 
74050 5.4793E+007 
74100 5.4182E+007 
74150 5.35778E+007 
74200 5.29803E+007 
74250 5.23895E+007 
74300 5.18052E+007 
74350 5.12275E+007 
74400 5.06562E+007 
74450 5.00913E+007 
74500 4.95326E+007 
74550 4.89802E+007 
74600 4.8434E+007 
74650 4.78938E+007 
74700 4.73596E+007 
74750 4.68314E+007 
74800 4.63091E+007 
74850 4.57926E+007 
74900 4.52818E+007 
74950 4.47768E+007 
75000 4.42773E+007 
75050 4.37835E+007 
75100 4.32951E+007 
75150 4.28122E+007 
75200 4.23346E+007 
75250 4.18624E+007 
75300 4.13954E+007 
75350 4.09337E+007 
75400 4.04771E+007 
75450 4.00255E+007 
75500 3.9579E+007 
75550 3.91375E+007 
75600 3.87009E+007 
75650 3.82692E+007 
75700 3.78423E+007 
75750 3.74201E+007 
75800 3.70026E+007 
75850 3.65898E+007 
75900 3.61816E+007 
75950 3.5778E+007 
76000 3.53788E+007 
76050 3.49841E+007 
76100 3.45938E+007 
76150 3.42078E+007 
76200 3.38261E+007 
76250 3.34487E+007 
76300 3.30755E+007 
76350 3.27065E+007 
76400 3.23416E+007 
76450 3.19807E+007 
76500 3.16239E+007 
76550 3.1271E+007 
76600 3.09221E+007 
76650 3.0577E+007 
76700 3.02359E+007 
76750 2.98985E+007 
76800 2.95648E+007 
76850 2.92349E+007 
76900 2.89087E+007 
76950 2.85861E+007 
77000 2.82671E+007 
77050 2.79517E+007 
77100 2.76397E+007 
77150 2.73313E+007 
77200 2.70263E+007 
77250 2.67247E+007 
77300 2.64264E+007 
77350 2.61315E+007 
77400 2.58399E+007 
77450 2.55515E+007 
77500 2.52663E+007 
77550 2.49843E+007 
77600 2.47055E+007 
77650 2.44297E+007 
77700 2.41571E+007 
77750 2.38875E+007 
77800 2.36209E+007 
77850 2.33572E+007 
77900 2.30965E+007 
77950 2.28387E+007 
78000 2.25838E+007 
78050 2.23317E+007 
78100 2.20825E+007 
78150 2.1836E+007 
78200 2.15922E+007 
78250 2.13512E+007 
78300 2.11129E+007 
78350 2.08772E+007 
78400 2.06442E+007 
78450 2.04137E+007 
78500 2.01858E+007 
78550 1.99605E+007 
78600 1.97377E+007 
78650 1.95173E+007 
78700 1.92995E+007 
78750 1.9084E+007 
78800 1.8871E+007 
78850 1.86603E+007 
78900 1.8452E+007 
78950 1.8246E+007 
79000 1.80423E+007 
79050 1.78409E+007 
79100 1.76417E+007 
79150 1.74447E+007 
79200 1.725E+007 
79250 1.70574E+007 
79300 1.68669E+007 
79350 1.66786E+007 
79400 1.64924E+007 
79450 1.63083E+007 
79500 1.61262E+007 
79550 1.59461E+007 
79600 1.57681E+007 
79650 1.5592E+007 
79700 1.54179E+007 
79750 1.52458E+007 
79800 1.50755E+007 
79850 1.49072E+007 
79900 1.47407E+007 
79950 1.45761E+007 
80000 1.44134E+007 
80050 1.42524E+007 
80100 1.40933E+007 
80150 1.39359E+007 
80200 1.37803E+007 
80250 1.36264E+007 
80300 1.34742E+007 
80350 1.33238E+007 
80400 1.3175E+007 
80450 1.30279E+007 
80500 1.28824E+007 
80550 1.27385E+007 
80600 1.25962E+007 
80650 1.24556E+007 
80700 1.23165E+007 
80750 1.21789E+007 
80800 1.20429E+007 
80850 1.19084E+007 
80900 1.17754E+007 
80950 1.16439E+007 
81000 1.15139E+007 
81050 1.13853E+007 
81100 1.12581E+007 
81150 1.11324E+007 
81200 1.1008E+007 
81250 1.08851E+007 
81300 1.07635E+007 
81350 1.06433E+007 
81400 1.05244E+007 
81450 1.04069E+007 
81500 1.02906E+007 
81550 1.01757E+007 
81600 1.0062E+007 
81650 9.94962E+006 
81700 9.83848E+006 
81750 9.72858E+006 
81800 9.61991E+006 
81850 9.51246E+006 
81900 9.4062E+006 
81950 9.30113E+006 
82000 9.19723E+006 
82050 9.09449E+006 
82100 8.9929E+006 
82150 8.89244E+006 
82200 8.7931E+006 
82250 8.69488E+006 
82300 8.59775E+006 
82350 8.5017E+006 
82400 8.40672E+006 
82450 8.31281E+006 
82500 8.21994E+006 
82550 8.12811E+006 
82600 8.03731E+006 
82650 7.94751E+006 
82700 7.85873E+006 
82750 7.77093E+006 
82800 7.68411E+006 
82850 7.59826E+006 
82900 7.51337E+006 
82950 7.42943E+006 
83000 7.34642E+006 
83050 7.26435E+006 
83100 7.18318E+006 
83150 7.10293E+006 
83200 7.02357E+006 
83250 6.94509E+006 
83300 6.8675E+006 
83350 6.79076E+006 
83400 6.71489E+006 
83450 6.63986E+006 
83500 6.56567E+006 
83550 6.49231E+006 
83600 6.41977E+006 
83650 6.34804E+006 
83700 6.2771E+006 
83750 6.20696E+006 
83800 6.13761E+006 
83850 6.06903E+006 
83900 6.00121E+006 
83950 5.93415E+006 
84000 5.86784E+006 
84050 5.80227E+006 
84100 5.73743E+006 
84150 5.67332E+006 
84200 5.60992E+006 
84250 5.54723E+006 
84300 5.48524E+006 
84350 5.42394E+006 
84400 5.36333E+006 
84450 5.3034E+006 
84500 5.24413E+006 
84550 5.18552E+006 
84600 5.12757E+006 
84650 5.07027E+006 
84700 5.01361E+006 
84750 4.95758E+006 
84800 4.90217E+006 
84850 4.84739E+006 
84900 4.79321E+006 
84950 4.73964E+006 
85000 4.68667E+006 
85050 4.63429E+006 
85100 4.5825E+006 
85150 4.53128E+006 
85200 4.48064E+006 
85250 4.43056E+006 
85300 4.38104E+006 
85350 4.33208E+006 
85400 4.28366E+006 
85450 4.23578E+006 
85500 4.18844E+006 
85550 4.14162E+006 
85600 4.09533E+006 
85650 4.04956E+006 
85700 4.00429E+006 
85750 3.95954E+006 
85800 3.91528E+006 
85850 3.87151E+006 
85900 3.82824E+006 
85950 3.78545E+006 
86000 3.74314E+006 
86050 3.7013E+006 
86100 3.65992E+006 
86150 3.61901E+006 
86200 3.57856E+006 
86250 3.53856E+006 
86300 3.499E+006 
86350 3.45989E+006 
86400 3.42121E+006 
86450 3.38297E+006 
86500 3.34515E+006 
86550 3.30776E+006 
86600 3.27078E+006 
86650 3.23422E+006 
86700 3.19806E+006 
86750 3.16231E+006 
86800 3.12696E+006 
86850 3.092E+006 
86900 3.05743E+006 
86950 3.02325E+006 
87000 2.98946E+006 
87050 2.95604E+006 
87100 2.92299E+006 
87150 2.89031E+006 
87200 2.858E+006 
87250 2.82605E+006 
87300 2.79445E+006 
87350 2.76321E+006 
87400 2.73232E+006 
87450 2.70177E+006 
87500 2.67156E+006 
87550 2.64169E+006 
87600 2.61216E+006 
87650 2.58295E+006 
87700 2.55407E+006 
87750 2.52552E+006 
87800 2.49728E+006 
87850 2.46936E+006 
87900 2.44175E+006 
87950 2.41445E+006 
88000 2.38745E+006 
88050 2.36076E+006 
88100 2.33436E+006 
88150 2.30826E+006 
88200 2.28245E+006 
88250 2.25693E+006 
88300 2.2317E+006 
88350 2.20674E+006 
88400 2.18207E+006 
88450 2.15767E+006 
88500 2.13354E+006 
88550 2.10969E+006 
88600 2.0861E+006 
88650 2.06277E+006 
88700 2.0397E+006 
88750 2.01689E+006 
88800 1.99434E+006 
88850 1.97204E+006 
88900 1.94999E+006 
88950 1.92818E+006 
89000 1.90662E+006 
89050 1.8853E+006 
89100 1.86422E+006 
89150 1.84337E+006 
89200 1.82276E+006 
89250 1.80237E+006 
89300 1.78222E+006 
89350 1.76229E+006 
89400 1.74258E+006 
89450 1.72309E+006 
89500 1.70382E+006 
89550 1.68477E+006 
89600 1.66593E+006 
89650 1.6473E+006 
89700 1.62887E+006 
89750 1.61066E+006 
89800 1.59265E+006 
89850 1.57483E+006 
89900 1.55722E+006 
89950 1.53981E+006 
90000 1.52258E+006 
90050 1.50556E+006 
90100 1.48872E+006 
90150 1.47207E+006 
90200 1.4556E+006 
90250 1.43932E+006 
90300 1.42323E+006 
90350 1.40731E+006 
90400 1.39157E+006 
90450 1.37601E+006 
90500 1.36062E+006 
90550 1.3454E+006 
90600 1.33035E+006 
90650 1.31547E+006 
90700 1.30076E+006 
90750 1.28621E+006 
90800 1.27182E+006 
90850 1.2576E+006 
90900 1.24353E+006 
90950 1.22962E+006 
91000 1.21587E+006 
91050 1.20227E+006 
91100 1.18882E+006 
91150 1.17552E+006 
91200 1.16237E+006 
91250 1.14937E+006 
91300 1.13652E+006 
91350 1.1238E+006 
91400 1.11123E+006 
91450 1.0988E+006 
91500 1.08651E+006 
91550 1.07436E+006 
91600 1.06234E+006 
91650 1.05046E+006 
91700 1.03871E+006 
91750 1.02709E+006 
91800 1.0156E+006 
91850 1.00424E+006 
91900 993003 
91950 981895 
92000 970911 
92050 960050 
92100 949311 
92150 938691 
92200 928190 
92250 917807 
92300 907539 
92350 897387 
92400 887348 
92450 877421 
92500 867605 
92550 857899 
92600 848302 
92650 838811 
92700 829427 
92750 820148 
92800 810973 
92850 801900 
92900 792929 
92950 784058 
93000 775286 
93050 766612 
93100 758036 
93150 749555 
93200 741169 
93250 732877 
93300 724677 
93350 716570 
93400 708552 
93450 700625 
93500 692786 
93550 685035 
93600 677371 
93650 669792 
93700 662298 
93750 654888 
93800 647561 
93850 640315 
93900 633151 
93950 626067 
94000 619062 
94050 612135 
94100 605286 
94150 598513 
94200 591817 
94250 585195 
94300 578647 
94350 572172 
94400 565770 
94450 559439 
94500 553180 
94550 546990 
94600 540869 
94650 534817 
94700 528833 
94750 522915 
94800 517064 
94850 511278 
94900 505557 
94950 499900 
95000 494306 
95050 488775 
95100 483305 
95150 477897 
95200 472549 
95250 467261 
95300 462033 
95350 456862 
95400 451750 
95450 446695 
95500 441696 
95550 436753 
95600 431866 
95650 427033 
95700 422254 
95750 417529 
95800 412856 
95850 408236 
95900 403667 
95950 399150 
96000 394683 
96050 390266 
96100 385899 
96150 381580 
96200 377310 
96250 373087 
96300 368912 
96350 364783 
96400 360701 
96450 356664 
96500 352672 
96550 348725 
96600 344822 
96650 340963 
96700 337147 
96750 333374 
96800 329643 
96850 325954 
96900 322306 
96950 318698 
97000 315131 
97050 311604 
97100 308117 
97150 304668 
97200 301259 
97250 297887 
97300 294553 
97350 291256 
97400 287996 
97450 284773 
97500 281585 
97550 278434 
97600 275317 
97650 272236 
97700 269189 
97750 266176 
97800 263196 
97850 260251 
97900 257338 
97950 254457 
98000 251609 
98050 248793 
98100 246008 
98150 243254 
98200 240532 
98250 237839 
98300 235177 
98350 232545 
98400 229942 
98450 227368 
98500 224823 
98550 222306 
98600 219818 
98650 217357 
98700 214924 
98750 212519 
98800 210140 
98850 207787 
98900 205461 
98950 203162 
99000 200887 
99050 198639 
99100 196415 
99150 194216 
99200 192042 
99250 189893 
99300 187767 
99350 185665 
99400 183587 
99450 181531 
99500 179499 
99550 177490 
99600 175503 
99650 173538 
99700 171596 
99750 169675 
99800 167775 
99850 165897 
99900 164040 
99950 162204 
100000 160388 
