#F U:\Beamline I20\I20-1_EDE\Wigglers\xop\83mm-small-wiggler\EDE line ranges\0p9T-300mA-0p12x1p2mrad.dat
#C I20EDE 0.9T 300mA 0.12x1.2mrad
#S 1 File written by xplot on Tue Sep 10 16:35:46 2013
#N 2
#L    Energy [eV]  Flux [ph/s/0.1%bw]
50 1.02552E+013 
100 1.62529E+013 
150 2.1245E+013 
200 2.56588E+013 
250 2.96719E+013 
300 3.33799E+013 
350 3.68421E+013 
400 4.00982E+013 
450 4.31769E+013 
500 4.60995E+013 
550 4.88827E+013 
600 5.15397E+013 
650 5.40814E+013 
700 5.65168E+013 
750 5.88534E+013 
800 6.10978E+013 
850 6.32556E+013 
900 6.53318E+013 
950 6.73308E+013 
1000 6.92565E+013 
1050 7.11123E+013 
1100 7.29016E+013 
1150 7.46272E+013 
1200 7.62916E+013 
1250 7.78974E+013 
1300 7.94469E+013 
1350 8.0942E+013 
1400 8.23848E+013 
1450 8.3777E+013 
1500 8.51203E+013 
1550 8.64165E+013 
1600 8.76668E+013 
1650 8.88729E+013 
1700 9.00359E+013 
1750 9.11573E+013 
1800 9.22382E+013 
1850 9.32798E+013 
1900 9.42832E+013 
1950 9.52494E+013 
2000 9.61795E+013 
2050 9.70745E+013 
2100 9.79352E+013 
2150 9.87625E+013 
2200 9.95574E+013 
2250 1.00321E+014 
2300 1.01053E+014 
2350 1.01756E+014 
2400 1.02429E+014 
2450 1.03073E+014 
2500 1.0369E+014 
2550 1.04279E+014 
2600 1.04842E+014 
2650 1.05379E+014 
2700 1.0589E+014 
2750 1.06377E+014 
2800 1.0684E+014 
2850 1.07279E+014 
2900 1.07695E+014 
2950 1.08089E+014 
3000 1.08461E+014 
3050 1.08812E+014 
3100 1.09141E+014 
3150 1.0945E+014 
3200 1.09739E+014 
3250 1.10009E+014 
3300 1.10259E+014 
3350 1.10491E+014 
3400 1.10705E+014 
3450 1.10901E+014 
3500 1.11079E+014 
3550 1.11241E+014 
3600 1.11386E+014 
3650 1.11515E+014 
3700 1.11628E+014 
3750 1.11725E+014 
3800 1.11808E+014 
3850 1.11876E+014 
3900 1.11929E+014 
3950 1.11968E+014 
4000 1.11993E+014 
4050 1.12005E+014 
4100 1.12004E+014 
4150 1.1199E+014 
4200 1.11963E+014 
4250 1.11924E+014 
4300 1.11874E+014 
4350 1.11811E+014 
4400 1.11738E+014 
4450 1.11653E+014 
4500 1.11557E+014 
4550 1.11451E+014 
4600 1.11334E+014 
4650 1.11207E+014 
4700 1.1107E+014 
4750 1.10924E+014 
4800 1.10769E+014 
4850 1.10604E+014 
4900 1.1043E+014 
4950 1.10248E+014 
5000 1.10057E+014 
5050 1.09858E+014 
5100 1.09651E+014 
5150 1.09435E+014 
5200 1.09213E+014 
5250 1.08983E+014 
5300 1.08745E+014 
5350 1.08501E+014 
5400 1.08249E+014 
5450 1.07991E+014 
5500 1.07727E+014 
5550 1.07456E+014 
5600 1.07179E+014 
5650 1.06895E+014 
5700 1.06606E+014 
5750 1.06312E+014 
5800 1.06011E+014 
5850 1.05706E+014 
5900 1.05395E+014 
5950 1.05079E+014 
6000 1.04758E+014 
6050 1.04432E+014 
6100 1.04102E+014 
6150 1.03768E+014 
6200 1.03428E+014 
6250 1.03085E+014 
6300 1.02738E+014 
6350 1.02386E+014 
6400 1.02031E+014 
6450 1.01672E+014 
6500 1.01309E+014 
6550 1.00943E+014 
6600 1.00574E+014 
6650 1.00201E+014 
6700 9.98254E+013 
6750 9.94466E+013 
6800 9.90648E+013 
6850 9.86803E+013 
6900 9.8293E+013 
6950 9.79031E+013 
7000 9.75107E+013 
7050 9.71159E+013 
7100 9.67188E+013 
7150 9.63195E+013 
7200 9.59181E+013 
7250 9.55146E+013 
7300 9.51091E+013 
7350 9.47019E+013 
7400 9.42928E+013 
7450 9.3882E+013 
7500 9.34697E+013 
7550 9.30558E+013 
7600 9.26404E+013 
7650 9.22237E+013 
7700 9.18057E+013 
7750 9.13865E+013 
7800 9.09661E+013 
7850 9.05446E+013 
7900 9.01222E+013 
7950 8.96987E+013 
8000 8.92745E+013 
8050 8.88494E+013 
8100 8.84235E+013 
8150 8.7997E+013 
8200 8.75699E+013 
8250 8.71422E+013 
8300 8.6714E+013 
8350 8.62854E+013 
8400 8.58563E+013 
8450 8.5427E+013 
8500 8.49974E+013 
8550 8.45675E+013 
8600 8.41375E+013 
8650 8.37074E+013 
8700 8.32772E+013 
8750 8.28469E+013 
8800 8.24167E+013 
8850 8.19866E+013 
8900 8.15566E+013 
8950 8.11268E+013 
9000 8.06972E+013 
9050 8.02678E+013 
9100 7.98387E+013 
9150 7.941E+013 
9200 7.89816E+013 
9250 7.85536E+013 
9300 7.81261E+013 
9350 7.76991E+013 
9400 7.72726E+013 
9450 7.68466E+013 
9500 7.64213E+013 
9550 7.59966E+013 
9600 7.55725E+013 
9650 7.51491E+013 
9700 7.47265E+013 
9750 7.43046E+013 
9800 7.38835E+013 
9850 7.34633E+013 
9900 7.30438E+013 
9950 7.26253E+013 
10000 7.22076E+013 
10050 7.17909E+013 
10100 7.13751E+013 
10150 7.09603E+013 
10200 7.05465E+013 
10250 7.01338E+013 
10300 6.97221E+013 
10350 6.93114E+013 
10400 6.89019E+013 
10450 6.84934E+013 
10500 6.80861E+013 
10550 6.768E+013 
10600 6.7275E+013 
10650 6.68713E+013 
10700 6.64687E+013 
10750 6.60674E+013 
10800 6.56674E+013 
10850 6.52686E+013 
10900 6.48711E+013 
10950 6.44749E+013 
11000 6.408E+013 
11050 6.36864E+013 
11100 6.32942E+013 
11150 6.29034E+013 
11200 6.25139E+013 
11250 6.21258E+013 
11300 6.17391E+013 
11350 6.13539E+013 
11400 6.097E+013 
11450 6.05876E+013 
11500 6.02067E+013 
11550 5.98272E+013 
11600 5.94492E+013 
11650 5.90726E+013 
11700 5.86976E+013 
11750 5.8324E+013 
11800 5.7952E+013 
11850 5.75815E+013 
11900 5.72125E+013 
11950 5.6845E+013 
12000 5.64791E+013 
12050 5.61147E+013 
12100 5.57519E+013 
12150 5.53906E+013 
12200 5.5031E+013 
12250 5.46729E+013 
12300 5.43163E+013 
12350 5.39614E+013 
12400 5.3608E+013 
12450 5.32563E+013 
12500 5.29061E+013 
12550 5.25576E+013 
12600 5.22107E+013 
12650 5.18653E+013 
12700 5.15216E+013 
12750 5.11795E+013 
12800 5.08391E+013 
12850 5.05002E+013 
12900 5.0163E+013 
12950 4.98274E+013 
13000 4.94935E+013 
13050 4.91612E+013 
13100 4.88305E+013 
13150 4.85015E+013 
13200 4.81741E+013 
13250 4.78483E+013 
13300 4.75242E+013 
13350 4.72017E+013 
13400 4.68809E+013 
13450 4.65617E+013 
13500 4.62441E+013 
13550 4.59282E+013 
13600 4.5614E+013 
13650 4.53013E+013 
13700 4.49904E+013 
13750 4.4681E+013 
13800 4.43733E+013 
13850 4.40673E+013 
13900 4.37629E+013 
13950 4.34601E+013 
14000 4.31589E+013 
14050 4.28594E+013 
14100 4.25615E+013 
14150 4.22653E+013 
14200 4.19706E+013 
14250 4.16776E+013 
14300 4.13862E+013 
14350 4.10965E+013 
14400 4.08083E+013 
14450 4.05218E+013 
14500 4.02369E+013 
14550 3.99536E+013 
14600 3.96718E+013 
14650 3.93917E+013 
14700 3.91132E+013 
14750 3.88363E+013 
14800 3.8561E+013 
14850 3.82873E+013 
14900 3.80151E+013 
14950 3.77446E+013 
15000 3.74756E+013 
15050 3.72082E+013 
15100 3.69424E+013 
15150 3.66781E+013 
15200 3.64154E+013 
15250 3.61542E+013 
15300 3.58946E+013 
15350 3.56366E+013 
15400 3.538E+013 
15450 3.51251E+013 
15500 3.48716E+013 
15550 3.46197E+013 
15600 3.43693E+013 
15650 3.41205E+013 
15700 3.38731E+013 
15750 3.36273E+013 
15800 3.33829E+013 
15850 3.31401E+013 
15900 3.28988E+013 
15950 3.26589E+013 
16000 3.24205E+013 
16050 3.21836E+013 
16100 3.19482E+013 
16150 3.17143E+013 
16200 3.14818E+013 
16250 3.12508E+013 
16300 3.10212E+013 
16350 3.07931E+013 
16400 3.05664E+013 
16450 3.03411E+013 
16500 3.01173E+013 
16550 2.98949E+013 
16600 2.96739E+013 
16650 2.94544E+013 
16700 2.92362E+013 
16750 2.90194E+013 
16800 2.8804E+013 
16850 2.85901E+013 
16900 2.83775E+013 
16950 2.81663E+013 
17000 2.79564E+013 
17050 2.77479E+013 
17100 2.75408E+013 
17150 2.7335E+013 
17200 2.71306E+013 
17250 2.69275E+013 
17300 2.67257E+013 
17350 2.65253E+013 
17400 2.63262E+013 
17450 2.61284E+013 
17500 2.59319E+013 
17550 2.57367E+013 
17600 2.55429E+013 
17650 2.53503E+013 
17700 2.5159E+013 
17750 2.49689E+013 
17800 2.47802E+013 
17850 2.45927E+013 
17900 2.44065E+013 
17950 2.42215E+013 
18000 2.40378E+013 
18050 2.38553E+013 
18100 2.36741E+013 
18150 2.3494E+013 
18200 2.33152E+013 
18250 2.31377E+013 
18300 2.29613E+013 
18350 2.27861E+013 
18400 2.26121E+013 
18450 2.24394E+013 
18500 2.22678E+013 
18550 2.20974E+013 
18600 2.19281E+013 
18650 2.176E+013 
18700 2.15931E+013 
18750 2.14274E+013 
18800 2.12628E+013 
18850 2.10993E+013 
18900 2.0937E+013 
18950 2.07758E+013 
19000 2.06157E+013 
19050 2.04567E+013 
19100 2.02988E+013 
19150 2.01421E+013 
19200 1.99864E+013 
19250 1.98319E+013 
19300 1.96784E+013 
19350 1.9526E+013 
19400 1.93747E+013 
19450 1.92244E+013 
19500 1.90752E+013 
19550 1.89271E+013 
19600 1.878E+013 
19650 1.86339E+013 
19700 1.84889E+013 
19750 1.8345E+013 
19800 1.8202E+013 
19850 1.80601E+013 
19900 1.79191E+013 
19950 1.77792E+013 
20000 1.76403E+013 
20050 1.75024E+013 
20100 1.73655E+013 
20150 1.72295E+013 
20200 1.70946E+013 
20250 1.69606E+013 
20300 1.68275E+013 
20350 1.66955E+013 
20400 1.65644E+013 
20450 1.64342E+013 
20500 1.6305E+013 
20550 1.61767E+013 
20600 1.60493E+013 
20650 1.59229E+013 
20700 1.57974E+013 
20750 1.56728E+013 
20800 1.55491E+013 
20850 1.54263E+013 
20900 1.53045E+013 
20950 1.51835E+013 
21000 1.50633E+013 
21050 1.49441E+013 
21100 1.48258E+013 
21150 1.47083E+013 
21200 1.45917E+013 
21250 1.44759E+013 
21300 1.4361E+013 
21350 1.4247E+013 
21400 1.41337E+013 
21450 1.40214E+013 
21500 1.39098E+013 
21550 1.37991E+013 
21600 1.36892E+013 
21650 1.35801E+013 
21700 1.34718E+013 
21750 1.33644E+013 
21800 1.32577E+013 
21850 1.31518E+013 
21900 1.30468E+013 
21950 1.29425E+013 
22000 1.2839E+013 
22050 1.27362E+013 
22100 1.26342E+013 
22150 1.2533E+013 
22200 1.24326E+013 
22250 1.23329E+013 
22300 1.22339E+013 
22350 1.21357E+013 
22400 1.20383E+013 
22450 1.19415E+013 
22500 1.18455E+013 
22550 1.17502E+013 
22600 1.16557E+013 
22650 1.15618E+013 
22700 1.14687E+013 
22750 1.13763E+013 
22800 1.12846E+013 
22850 1.11935E+013 
22900 1.11032E+013 
22950 1.10135E+013 
23000 1.09246E+013 
23050 1.08363E+013 
23100 1.07487E+013 
23150 1.06617E+013 
23200 1.05754E+013 
23250 1.04898E+013 
23300 1.04048E+013 
23350 1.03205E+013 
23400 1.02368E+013 
23450 1.01538E+013 
23500 1.00714E+013 
23550 9.98959E+012 
23600 9.90845E+012 
23650 9.82793E+012 
23700 9.74802E+012 
23750 9.66874E+012 
23800 9.59006E+012 
23850 9.51199E+012 
23900 9.43452E+012 
23950 9.35766E+012 
24000 9.28138E+012 
24050 9.20569E+012 
24100 9.13059E+012 
24150 9.05607E+012 
24200 8.98213E+012 
24250 8.90876E+012 
24300 8.83596E+012 
24350 8.76372E+012 
24400 8.69205E+012 
24450 8.62093E+012 
24500 8.55037E+012 
24550 8.48035E+012 
24600 8.41088E+012 
24650 8.34195E+012 
24700 8.27356E+012 
24750 8.2057E+012 
24800 8.13838E+012 
24850 8.07158E+012 
24900 8.00529E+012 
24950 7.93953E+012 
25000 7.87429E+012 
25050 7.80955E+012 
25100 7.74533E+012 
25150 7.6816E+012 
25200 7.61838E+012 
25250 7.55565E+012 
25300 7.49342E+012 
25350 7.43167E+012 
25400 7.37041E+012 
25450 7.30964E+012 
25500 7.24934E+012 
25550 7.18952E+012 
25600 7.13016E+012 
25650 7.07128E+012 
25700 7.01286E+012 
25750 6.95491E+012 
25800 6.89741E+012 
25850 6.84037E+012 
25900 6.78378E+012 
25950 6.72763E+012 
26000 6.67193E+012 
26050 6.61668E+012 
26100 6.56186E+012 
26150 6.50748E+012 
26200 6.45352E+012 
26250 6.4E+012 
26300 6.3469E+012 
26350 6.29423E+012 
26400 6.24197E+012 
26450 6.19013E+012 
26500 6.13871E+012 
26550 6.08769E+012 
26600 6.03708E+012 
26650 5.98688E+012 
26700 5.93707E+012 
26750 5.88767E+012 
26800 5.83865E+012 
26850 5.79003E+012 
26900 5.7418E+012 
26950 5.69396E+012 
27000 5.6465E+012 
27050 5.59942E+012 
27100 5.55271E+012 
27150 5.50639E+012 
27200 5.46043E+012 
27250 5.41484E+012 
27300 5.36962E+012 
27350 5.32476E+012 
27400 5.28026E+012 
27450 5.23613E+012 
27500 5.19234E+012 
27550 5.14891E+012 
27600 5.10583E+012 
27650 5.0631E+012 
27700 5.02071E+012 
27750 4.97866E+012 
27800 4.93695E+012 
27850 4.89558E+012 
27900 4.85455E+012 
27950 4.81384E+012 
28000 4.77347E+012 
28050 4.73342E+012 
28100 4.6937E+012 
28150 4.65429E+012 
28200 4.61521E+012 
28250 4.57644E+012 
28300 4.53799E+012 
28350 4.49985E+012 
28400 4.46202E+012 
28450 4.4245E+012 
28500 4.38728E+012 
28550 4.35037E+012 
28600 4.31375E+012 
28650 4.27744E+012 
28700 4.24141E+012 
28750 4.20569E+012 
28800 4.17025E+012 
28850 4.1351E+012 
28900 4.10024E+012 
28950 4.06566E+012 
29000 4.03137E+012 
29050 3.99735E+012 
29100 3.96361E+012 
29150 3.93015E+012 
29200 3.89697E+012 
29250 3.86405E+012 
29300 3.8314E+012 
29350 3.79902E+012 
29400 3.76691E+012 
29450 3.73505E+012 
29500 3.70346E+012 
29550 3.67213E+012 
29600 3.64106E+012 
29650 3.61024E+012 
29700 3.57967E+012 
29750 3.54936E+012 
29800 3.51929E+012 
29850 3.48947E+012 
29900 3.45989E+012 
29950 3.43056E+012 
30000 3.40147E+012 
30050 3.37262E+012 
30100 3.34401E+012 
30150 3.31563E+012 
30200 3.28749E+012 
30250 3.25957E+012 
30300 3.23189E+012 
30350 3.20444E+012 
30400 3.17721E+012 
30450 3.15021E+012 
30500 3.12343E+012 
30550 3.09687E+012 
30600 3.07053E+012 
30650 3.04441E+012 
30700 3.01851E+012 
30750 2.99282E+012 
30800 2.96734E+012 
30850 2.94207E+012 
30900 2.91702E+012 
30950 2.89217E+012 
31000 2.86752E+012 
31050 2.84308E+012 
31100 2.81884E+012 
31150 2.79481E+012 
31200 2.77097E+012 
31250 2.74733E+012 
31300 2.72389E+012 
31350 2.70064E+012 
31400 2.67759E+012 
31450 2.65473E+012 
31500 2.63205E+012 
31550 2.60957E+012 
31600 2.58727E+012 
31650 2.56516E+012 
31700 2.54323E+012 
31750 2.52149E+012 
31800 2.49992E+012 
31850 2.47854E+012 
31900 2.45733E+012 
31950 2.43631E+012 
32000 2.41545E+012 
32050 2.39477E+012 
32100 2.37427E+012 
32150 2.35393E+012 
32200 2.33377E+012 
32250 2.31377E+012 
32300 2.29394E+012 
32350 2.27428E+012 
32400 2.25478E+012 
32450 2.23544E+012 
32500 2.21626E+012 
32550 2.19725E+012 
32600 2.1784E+012 
32650 2.1597E+012 
32700 2.14116E+012 
32750 2.12277E+012 
32800 2.10454E+012 
32850 2.08647E+012 
32900 2.06854E+012 
32950 2.05076E+012 
33000 2.03314E+012 
33050 2.01566E+012 
33100 1.99833E+012 
33150 1.98114E+012 
33200 1.9641E+012 
33250 1.9472E+012 
33300 1.93044E+012 
33350 1.91383E+012 
33400 1.89735E+012 
33450 1.88102E+012 
33500 1.86482E+012 
33550 1.84875E+012 
33600 1.83283E+012 
33650 1.81703E+012 
33700 1.80137E+012 
33750 1.78584E+012 
33800 1.77045E+012 
33850 1.75518E+012 
33900 1.74004E+012 
33950 1.72503E+012 
34000 1.71014E+012 
34050 1.69539E+012 
34100 1.68075E+012 
34150 1.66624E+012 
34200 1.65185E+012 
34250 1.63759E+012 
34300 1.62344E+012 
34350 1.60942E+012 
34400 1.59551E+012 
34450 1.58172E+012 
34500 1.56805E+012 
34550 1.55449E+012 
34600 1.54105E+012 
34650 1.52772E+012 
34700 1.5145E+012 
34750 1.5014E+012 
34800 1.48841E+012 
34850 1.47552E+012 
34900 1.46275E+012 
34950 1.45009E+012 
35000 1.43753E+012 
35050 1.42508E+012 
35100 1.41273E+012 
35150 1.40049E+012 
35200 1.38836E+012 
35250 1.37632E+012 
35300 1.36439E+012 
35350 1.35256E+012 
35400 1.34084E+012 
35450 1.32921E+012 
35500 1.31768E+012 
35550 1.30624E+012 
35600 1.29491E+012 
35650 1.28367E+012 
35700 1.27253E+012 
35750 1.26148E+012 
35800 1.25053E+012 
35850 1.23967E+012 
35900 1.2289E+012 
35950 1.21822E+012 
36000 1.20764E+012 
36050 1.19715E+012 
36100 1.18674E+012 
36150 1.17642E+012 
36200 1.1662E+012 
36250 1.15606E+012 
36300 1.146E+012 
36350 1.13603E+012 
36400 1.12615E+012 
36450 1.11635E+012 
36500 1.10663E+012 
36550 1.097E+012 
36600 1.08745E+012 
36650 1.07798E+012 
36700 1.0686E+012 
36750 1.05929E+012 
36800 1.05006E+012 
36850 1.04091E+012 
36900 1.03184E+012 
36950 1.02285E+012 
37000 1.01394E+012 
37050 1.0051E+012 
37100 9.96335E+011 
37150 9.87647E+011 
37200 9.79034E+011 
37250 9.70494E+011 
37300 9.62027E+011 
37350 9.53633E+011 
37400 9.45312E+011 
37450 9.37061E+011 
37500 9.28881E+011 
37550 9.20772E+011 
37600 9.12732E+011 
37650 9.04761E+011 
37700 8.96859E+011 
37750 8.89024E+011 
37800 8.81257E+011 
37850 8.73557E+011 
37900 8.65923E+011 
37950 8.58354E+011 
38000 8.50851E+011 
38050 8.43412E+011 
38100 8.36037E+011 
38150 8.28725E+011 
38200 8.21477E+011 
38250 8.14291E+011 
38300 8.07166E+011 
38350 8.00104E+011 
38400 7.93101E+011 
38450 7.8616E+011 
38500 7.79278E+011 
38550 7.72455E+011 
38600 7.65691E+011 
38650 7.58986E+011 
38700 7.52338E+011 
38750 7.45748E+011 
38800 7.39214E+011 
38850 7.32737E+011 
38900 7.26315E+011 
38950 7.1995E+011 
39000 7.13639E+011 
39050 7.07382E+011 
39100 7.0118E+011 
39150 6.95031E+011 
39200 6.88935E+011 
39250 6.82893E+011 
39300 6.76902E+011 
39350 6.70963E+011 
39400 6.65075E+011 
39450 6.59238E+011 
39500 6.53452E+011 
39550 6.47716E+011 
39600 6.42029E+011 
39650 6.36392E+011 
39700 6.30803E+011 
39750 6.25263E+011 
39800 6.19771E+011 
39850 6.14326E+011 
39900 6.08928E+011 
39950 6.03578E+011 
40000 5.98273E+011 
40050 5.93014E+011 
40100 5.87802E+011 
40150 5.82634E+011 
40200 5.77511E+011 
40250 5.72432E+011 
40300 5.67398E+011 
40350 5.62407E+011 
40400 5.5746E+011 
40450 5.52555E+011 
40500 5.47693E+011 
40550 5.42873E+011 
40600 5.38095E+011 
40650 5.33359E+011 
40700 5.28663E+011 
40750 5.24009E+011 
40800 5.19395E+011 
40850 5.14821E+011 
40900 5.10286E+011 
40950 5.05791E+011 
41000 5.01335E+011 
41050 4.96918E+011 
41100 4.9254E+011 
41150 4.88199E+011 
41200 4.83896E+011 
41250 4.79631E+011 
41300 4.75402E+011 
41350 4.71211E+011 
41400 4.67056E+011 
41450 4.62937E+011 
41500 4.58854E+011 
41550 4.54806E+011 
41600 4.50794E+011 
41650 4.46817E+011 
41700 4.42874E+011 
41750 4.38966E+011 
41800 4.35092E+011 
41850 4.31251E+011 
41900 4.27444E+011 
41950 4.23671E+011 
42000 4.1993E+011 
42050 4.16221E+011 
42100 4.12546E+011 
42150 4.08902E+011 
42200 4.0529E+011 
42250 4.01709E+011 
42300 3.9816E+011 
42350 3.94641E+011 
42400 3.91154E+011 
42450 3.87697E+011 
42500 3.8427E+011 
42550 3.80873E+011 
42600 3.77505E+011 
42650 3.74167E+011 
42700 3.70859E+011 
42750 3.67579E+011 
42800 3.64328E+011 
42850 3.61105E+011 
42900 3.5791E+011 
42950 3.54743E+011 
43000 3.51604E+011 
43050 3.48493E+011 
43100 3.45409E+011 
43150 3.42351E+011 
43200 3.39321E+011 
43250 3.36317E+011 
43300 3.33339E+011 
43350 3.30387E+011 
43400 3.27461E+011 
43450 3.24561E+011 
43500 3.21686E+011 
43550 3.18837E+011 
43600 3.16012E+011 
43650 3.13212E+011 
43700 3.10436E+011 
43750 3.07685E+011 
43800 3.04958E+011 
43850 3.02255E+011 
43900 2.99576E+011 
43950 2.9692E+011 
44000 2.94287E+011 
44050 2.91678E+011 
44100 2.89091E+011 
44150 2.86527E+011 
44200 2.83986E+011 
44250 2.81466E+011 
44300 2.78969E+011 
44350 2.76494E+011 
44400 2.74041E+011 
44450 2.71609E+011 
44500 2.69198E+011 
44550 2.66809E+011 
44600 2.64441E+011 
44650 2.62093E+011 
44700 2.59766E+011 
44750 2.5746E+011 
44800 2.55173E+011 
44850 2.52907E+011 
44900 2.50661E+011 
44950 2.48434E+011 
45000 2.46228E+011 
45050 2.4404E+011 
45100 2.41872E+011 
45150 2.39722E+011 
45200 2.37592E+011 
45250 2.35481E+011 
45300 2.33388E+011 
45350 2.31313E+011 
45400 2.29257E+011 
45450 2.27219E+011 
45500 2.25198E+011 
45550 2.23196E+011 
45600 2.21211E+011 
45650 2.19243E+011 
45700 2.17293E+011 
45750 2.1536E+011 
45800 2.13445E+011 
45850 2.11546E+011 
45900 2.09663E+011 
45950 2.07798E+011 
46000 2.05948E+011 
46050 2.04115E+011 
46100 2.02299E+011 
46150 2.00498E+011 
46200 1.98713E+011 
46250 1.96944E+011 
46300 1.9519E+011 
46350 1.93452E+011 
46400 1.91729E+011 
46450 1.90022E+011 
46500 1.88329E+011 
46550 1.86652E+011 
46600 1.84989E+011 
46650 1.83341E+011 
46700 1.81707E+011 
46750 1.80088E+011 
46800 1.78483E+011 
46850 1.76893E+011 
46900 1.75316E+011 
46950 1.73753E+011 
47000 1.72205E+011 
47050 1.70669E+011 
47100 1.69148E+011 
47150 1.67639E+011 
47200 1.66145E+011 
47250 1.64663E+011 
47300 1.63194E+011 
47350 1.61739E+011 
47400 1.60296E+011 
47450 1.58866E+011 
47500 1.57449E+011 
47550 1.56044E+011 
47600 1.54651E+011 
47650 1.53271E+011 
47700 1.51904E+011 
47750 1.50548E+011 
47800 1.49204E+011 
47850 1.47872E+011 
47900 1.46552E+011 
47950 1.45244E+011 
48000 1.43947E+011 
48050 1.42662E+011 
48100 1.41388E+011 
48150 1.40125E+011 
48200 1.38873E+011 
48250 1.37633E+011 
48300 1.36404E+011 
48350 1.35185E+011 
48400 1.33977E+011 
48450 1.3278E+011 
48500 1.31594E+011 
48550 1.30418E+011 
48600 1.29252E+011 
48650 1.28097E+011 
48700 1.26952E+011 
48750 1.25817E+011 
48800 1.24693E+011 
48850 1.23578E+011 
48900 1.22473E+011 
48950 1.21378E+011 
49000 1.20292E+011 
49050 1.19217E+011 
49100 1.1815E+011 
49150 1.17094E+011 
49200 1.16046E+011 
49250 1.15008E+011 
49300 1.13979E+011 
49350 1.1296E+011 
49400 1.11949E+011 
49450 1.10947E+011 
49500 1.09954E+011 
49550 1.08971E+011 
49600 1.07995E+011 
49650 1.07029E+011 
49700 1.06071E+011 
49750 1.05121E+011 
49800 1.0418E+011 
49850 1.03247E+011 
49900 1.02323E+011 
49950 1.01407E+011 
50000 1.00498E+011 
50050 9.95985E+010 
50100 9.87064E+010 
50150 9.78224E+010 
50200 9.69461E+010 
50250 9.60777E+010 
50300 9.52169E+010 
50350 9.43639E+010 
50400 9.35184E+010 
50450 9.26804E+010 
50500 9.18499E+010 
50550 9.10268E+010 
50600 9.0211E+010 
50650 8.94024E+010 
50700 8.86011E+010 
50750 8.78068E+010 
50800 8.70197E+010 
50850 8.62395E+010 
50900 8.54663E+010 
50950 8.46999E+010 
51000 8.39404E+010 
51050 8.31877E+010 
51100 8.24416E+010 
51150 8.17022E+010 
51200 8.09694E+010 
51250 8.02431E+010 
51300 7.95233E+010 
51350 7.88099E+010 
51400 7.81028E+010 
51450 7.7402E+010 
51500 7.67075E+010 
51550 7.60192E+010 
51600 7.5337E+010 
51650 7.46608E+010 
51700 7.39908E+010 
51750 7.33266E+010 
51800 7.26684E+010 
51850 7.20161E+010 
51900 7.13696E+010 
51950 7.07288E+010 
52000 7.00938E+010 
52050 6.94644E+010 
52100 6.88406E+010 
52150 6.82224E+010 
52200 6.76097E+010 
52250 6.70025E+010 
52300 6.64006E+010 
52350 6.58042E+010 
52400 6.52131E+010 
52450 6.46272E+010 
52500 6.40466E+010 
52550 6.34712E+010 
52600 6.29009E+010 
52650 6.23356E+010 
52700 6.17755E+010 
52750 6.12203E+010 
52800 6.06701E+010 
52850 6.01248E+010 
52900 5.95844E+010 
52950 5.90488E+010 
53000 5.85179E+010 
53050 5.79918E+010 
53100 5.74705E+010 
53150 5.69537E+010 
53200 5.64416E+010 
53250 5.59341E+010 
53300 5.54311E+010 
53350 5.49326E+010 
53400 5.44385E+010 
53450 5.39489E+010 
53500 5.34636E+010 
53550 5.29827E+010 
53600 5.25061E+010 
53650 5.20337E+010 
53700 5.15656E+010 
53750 5.11016E+010 
53800 5.06418E+010 
53850 5.01861E+010 
53900 4.97345E+010 
53950 4.92869E+010 
54000 4.88433E+010 
54050 4.84037E+010 
54100 4.7968E+010 
54150 4.75362E+010 
54200 4.71083E+010 
54250 4.66842E+010 
54300 4.62639E+010 
54350 4.58474E+010 
54400 4.54346E+010 
54450 4.50255E+010 
54500 4.462E+010 
54550 4.42182E+010 
54600 4.38199E+010 
54650 4.34253E+010 
54700 4.30341E+010 
54750 4.26465E+010 
54800 4.22624E+010 
54850 4.18816E+010 
54900 4.15043E+010 
54950 4.11304E+010 
55000 4.07598E+010 
55050 4.03926E+010 
55100 4.00286E+010 
55150 3.96679E+010 
55200 3.93104E+010 
55250 3.89561E+010 
55300 3.8605E+010 
55350 3.82571E+010 
55400 3.79122E+010 
55450 3.75705E+010 
55500 3.72318E+010 
55550 3.68961E+010 
55600 3.65635E+010 
55650 3.62339E+010 
55700 3.59071E+010 
55750 3.55834E+010 
55800 3.52625E+010 
55850 3.49445E+010 
55900 3.46294E+010 
55950 3.4317E+010 
56000 3.40075E+010 
56050 3.37008E+010 
56100 3.33968E+010 
56150 3.30955E+010 
56200 3.2797E+010 
56250 3.25011E+010 
56300 3.22079E+010 
56350 3.19173E+010 
56400 3.16293E+010 
56450 3.13439E+010 
56500 3.1061E+010 
56550 3.07807E+010 
56600 3.0503E+010 
56650 3.02277E+010 
56700 2.99548E+010 
56750 2.96845E+010 
56800 2.94165E+010 
56850 2.9151E+010 
56900 2.88878E+010 
56950 2.8627E+010 
57000 2.83686E+010 
57050 2.81124E+010 
57100 2.78586E+010 
57150 2.76071E+010 
57200 2.73578E+010 
57250 2.71107E+010 
57300 2.68659E+010 
57350 2.66232E+010 
57400 2.63828E+010 
57450 2.61445E+010 
57500 2.59083E+010 
57550 2.56743E+010 
57600 2.54424E+010 
57650 2.52125E+010 
57700 2.49848E+010 
57750 2.4759E+010 
57800 2.45353E+010 
57850 2.43136E+010 
57900 2.40939E+010 
57950 2.38762E+010 
58000 2.36605E+010 
58050 2.34466E+010 
58100 2.32347E+010 
58150 2.30247E+010 
58200 2.28166E+010 
58250 2.26104E+010 
58300 2.2406E+010 
58350 2.22035E+010 
58400 2.20027E+010 
58450 2.18038E+010 
58500 2.16067E+010 
58550 2.14114E+010 
58600 2.12178E+010 
58650 2.10259E+010 
58700 2.08358E+010 
58750 2.06474E+010 
58800 2.04606E+010 
58850 2.02756E+010 
58900 2.00922E+010 
58950 1.99105E+010 
59000 1.97304E+010 
59050 1.95519E+010 
59100 1.93751E+010 
59150 1.91998E+010 
59200 1.90261E+010 
59250 1.8854E+010 
59300 1.86834E+010 
59350 1.85144E+010 
59400 1.83469E+010 
59450 1.81808E+010 
59500 1.80163E+010 
59550 1.78533E+010 
59600 1.76917E+010 
59650 1.75316E+010 
59700 1.7373E+010 
59750 1.72157E+010 
59800 1.70599E+010 
59850 1.69055E+010 
59900 1.67524E+010 
59950 1.66008E+010 
60000 1.64505E+010 
60050 1.63016E+010 
60100 1.6154E+010 
60150 1.60077E+010 
60200 1.58628E+010 
60250 1.57192E+010 
60300 1.55769E+010 
60350 1.54358E+010 
60400 1.5296E+010 
60450 1.51575E+010 
60500 1.50202E+010 
60550 1.48842E+010 
60600 1.47494E+010 
60650 1.46158E+010 
60700 1.44834E+010 
60750 1.43522E+010 
60800 1.42222E+010 
60850 1.40934E+010 
60900 1.39657E+010 
60950 1.38392E+010 
61000 1.37138E+010 
61050 1.35895E+010 
61100 1.34664E+010 
61150 1.33444E+010 
61200 1.32234E+010 
61250 1.31036E+010 
61300 1.29849E+010 
61350 1.28672E+010 
61400 1.27506E+010 
61450 1.2635E+010 
61500 1.25205E+010 
61550 1.2407E+010 
61600 1.22946E+010 
61650 1.21831E+010 
61700 1.20727E+010 
61750 1.19632E+010 
61800 1.18548E+010 
61850 1.17473E+010 
61900 1.16408E+010 
61950 1.15353E+010 
62000 1.14307E+010 
62050 1.1327E+010 
62100 1.12243E+010 
62150 1.11225E+010 
62200 1.10216E+010 
62250 1.09217E+010 
62300 1.08226E+010 
62350 1.07245E+010 
62400 1.06272E+010 
62450 1.05308E+010 
62500 1.04353E+010 
62550 1.03407E+010 
62600 1.02468E+010 
62650 1.01539E+010 
62700 1.00618E+010 
62750 9.9705E+009 
62800 9.88005E+009 
62850 9.79041E+009 
62900 9.70158E+009 
62950 9.61355E+009 
63000 9.52632E+009 
63050 9.43988E+009 
63100 9.35422E+009 
63150 9.26933E+009 
63200 9.18521E+009 
63250 9.10185E+009 
63300 9.01924E+009 
63350 8.93738E+009 
63400 8.85626E+009 
63450 8.77588E+009 
63500 8.69622E+009 
63550 8.61728E+009 
63600 8.53906E+009 
63650 8.46154E+009 
63700 8.38472E+009 
63750 8.3086E+009 
63800 8.23317E+009 
63850 8.15841E+009 
63900 8.08434E+009 
63950 8.01093E+009 
64000 7.93819E+009 
64050 7.86611E+009 
64100 7.79468E+009 
64150 7.7239E+009 
64200 7.65375E+009 
64250 7.58424E+009 
64300 7.51536E+009 
64350 7.4471E+009 
64400 7.37947E+009 
64450 7.31244E+009 
64500 7.24602E+009 
64550 7.1802E+009 
64600 7.11497E+009 
64650 7.05034E+009 
64700 6.98629E+009 
64750 6.92282E+009 
64800 6.85992E+009 
64850 6.7976E+009 
64900 6.73584E+009 
64950 6.67464E+009 
65000 6.61399E+009 
65050 6.55389E+009 
65100 6.49434E+009 
65150 6.43532E+009 
65200 6.37684E+009 
65250 6.31889E+009 
65300 6.26146E+009 
65350 6.20455E+009 
65400 6.14816E+009 
65450 6.09228E+009 
65500 6.03691E+009 
65550 5.98203E+009 
65600 5.92766E+009 
65650 5.87378E+009 
65700 5.82038E+009 
65750 5.76747E+009 
65800 5.71504E+009 
65850 5.66308E+009 
65900 5.61159E+009 
65950 5.56057E+009 
66000 5.51002E+009 
66050 5.45992E+009 
66100 5.41027E+009 
66150 5.36108E+009 
66200 5.31233E+009 
66250 5.26402E+009 
66300 5.21615E+009 
66350 5.16871E+009 
66400 5.1217E+009 
66450 5.07512E+009 
66500 5.02897E+009 
66550 4.98323E+009 
66600 4.9379E+009 
66650 4.89299E+009 
66700 4.84848E+009 
66750 4.80438E+009 
66800 4.76067E+009 
66850 4.71737E+009 
66900 4.67445E+009 
66950 4.63193E+009 
67000 4.58979E+009 
67050 4.54803E+009 
67100 4.50665E+009 
67150 4.46564E+009 
67200 4.42501E+009 
67250 4.38475E+009 
67300 4.34485E+009 
67350 4.30531E+009 
67400 4.26614E+009 
67450 4.22731E+009 
67500 4.18884E+009 
67550 4.15072E+009 
67600 4.11294E+009 
67650 4.07551E+009 
67700 4.03842E+009 
67750 4.00166E+009 
67800 3.96524E+009 
67850 3.92915E+009 
67900 3.89338E+009 
67950 3.85794E+009 
68000 3.82282E+009 
68050 3.78802E+009 
68100 3.75354E+009 
68150 3.71936E+009 
68200 3.6855E+009 
68250 3.65195E+009 
68300 3.6187E+009 
68350 3.58575E+009 
68400 3.5531E+009 
68450 3.52075E+009 
68500 3.48869E+009 
68550 3.45692E+009 
68600 3.42544E+009 
68650 3.39425E+009 
68700 3.36334E+009 
68750 3.33271E+009 
68800 3.30236E+009 
68850 3.27228E+009 
68900 3.24248E+009 
68950 3.21295E+009 
69000 3.18368E+009 
69050 3.15468E+009 
69100 3.12595E+009 
69150 3.09748E+009 
69200 3.06926E+009 
69250 3.0413E+009 
69300 3.0136E+009 
69350 2.98614E+009 
69400 2.95894E+009 
69450 2.93198E+009 
69500 2.90527E+009 
69550 2.8788E+009 
69600 2.85257E+009 
69650 2.82658E+009 
69700 2.80083E+009 
69750 2.7753E+009 
69800 2.75002E+009 
69850 2.72496E+009 
69900 2.70012E+009 
69950 2.67552E+009 
70000 2.65114E+009 
70050 2.62698E+009 
70100 2.60304E+009 
70150 2.57931E+009 
70200 2.5558E+009 
70250 2.53251E+009 
70300 2.50943E+009 
70350 2.48655E+009 
70400 2.46389E+009 
70450 2.44143E+009 
70500 2.41918E+009 
70550 2.39712E+009 
70600 2.37527E+009 
70650 2.35362E+009 
70700 2.33216E+009 
70750 2.3109E+009 
70800 2.28983E+009 
70850 2.26896E+009 
70900 2.24827E+009 
70950 2.22777E+009 
71000 2.20746E+009 
71050 2.18733E+009 
71100 2.16739E+009 
71150 2.14762E+009 
71200 2.12804E+009 
71250 2.10864E+009 
71300 2.08941E+009 
71350 2.07035E+009 
71400 2.05147E+009 
71450 2.03276E+009 
71500 2.01423E+009 
71550 1.99585E+009 
71600 1.97765E+009 
71650 1.95961E+009 
71700 1.94174E+009 
71750 1.92403E+009 
71800 1.90648E+009 
71850 1.88909E+009 
71900 1.87186E+009 
71950 1.85478E+009 
72000 1.83786E+009 
72050 1.8211E+009 
72100 1.80448E+009 
72150 1.78802E+009 
72200 1.77171E+009 
72250 1.75555E+009 
72300 1.73953E+009 
72350 1.72366E+009 
72400 1.70793E+009 
72450 1.69235E+009 
72500 1.67691E+009 
72550 1.66161E+009 
72600 1.64645E+009 
72650 1.63142E+009 
72700 1.61653E+009 
72750 1.60178E+009 
72800 1.58717E+009 
72850 1.57268E+009 
72900 1.55833E+009 
72950 1.54411E+009 
73000 1.53001E+009 
73050 1.51605E+009 
73100 1.50222E+009 
73150 1.4885E+009 
73200 1.47492E+009 
73250 1.46146E+009 
73300 1.44812E+009 
73350 1.4349E+009 
73400 1.4218E+009 
73450 1.40882E+009 
73500 1.39596E+009 
73550 1.38322E+009 
73600 1.37059E+009 
73650 1.35808E+009 
73700 1.34568E+009 
73750 1.33339E+009 
73800 1.32122E+009 
73850 1.30916E+009 
73900 1.2972E+009 
73950 1.28536E+009 
74000 1.27362E+009 
74050 1.262E+009 
74100 1.25047E+009 
74150 1.23905E+009 
74200 1.22774E+009 
74250 1.21653E+009 
74300 1.20542E+009 
74350 1.19441E+009 
74400 1.18351E+009 
74450 1.1727E+009 
74500 1.16199E+009 
74550 1.15137E+009 
74600 1.14086E+009 
74650 1.13044E+009 
74700 1.12011E+009 
74750 1.10989E+009 
74800 1.09975E+009 
74850 1.0897E+009 
74900 1.07975E+009 
74950 1.06989E+009 
75000 1.06011E+009 
75050 1.05043E+009 
75100 1.04083E+009 
75150 1.03133E+009 
75200 1.02191E+009 
75250 1.01257E+009 
75300 1.00332E+009 
75350 9.94153E+008 
75400 9.8507E+008 
75450 9.76071E+008 
75500 9.67153E+008 
75550 9.58316E+008 
75600 9.49561E+008 
75650 9.40884E+008 
75700 9.32287E+008 
75750 9.23769E+008 
75800 9.15328E+008 
75850 9.06964E+008 
75900 8.98676E+008 
75950 8.90464E+008 
76000 8.82327E+008 
76050 8.74264E+008 
76100 8.66274E+008 
76150 8.58358E+008 
76200 8.50513E+008 
76250 8.4274E+008 
76300 8.35038E+008 
76350 8.27407E+008 
76400 8.19844E+008 
76450 8.12351E+008 
76500 8.04926E+008 
76550 7.97569E+008 
76600 7.90279E+008 
76650 7.83055E+008 
76700 7.75898E+008 
76750 7.68805E+008 
76800 7.61778E+008 
76850 7.54814E+008 
76900 7.47914E+008 
76950 7.41077E+008 
77000 7.34302E+008 
77050 7.27589E+008 
77100 7.20937E+008 
77150 7.14346E+008 
77200 7.07815E+008 
77250 7.01344E+008 
77300 6.94932E+008 
77350 6.88578E+008 
77400 6.82282E+008 
77450 6.76044E+008 
77500 6.69863E+008 
77550 6.63737E+008 
77600 6.57668E+008 
77650 6.51655E+008 
77700 6.45696E+008 
77750 6.39791E+008 
77800 6.33941E+008 
77850 6.28143E+008 
77900 6.22399E+008 
77950 6.16707E+008 
78000 6.11067E+008 
78050 6.05479E+008 
78100 5.99942E+008 
78150 5.94455E+008 
78200 5.89018E+008 
78250 5.83631E+008 
78300 5.78292E+008 
78350 5.73003E+008 
78400 5.67762E+008 
78450 5.62569E+008 
78500 5.57423E+008 
78550 5.52324E+008 
78600 5.47272E+008 
78650 5.42266E+008 
78700 5.37306E+008 
78750 5.32391E+008 
78800 5.2752E+008 
78850 5.22695E+008 
78900 5.17913E+008 
78950 5.13175E+008 
79000 5.0848E+008 
79050 5.03828E+008 
79100 4.99219E+008 
79150 4.94651E+008 
79200 4.90126E+008 
79250 4.85641E+008 
79300 4.81198E+008 
79350 4.76795E+008 
79400 4.72433E+008 
79450 4.6811E+008 
79500 4.63827E+008 
79550 4.59582E+008 
79600 4.55377E+008 
79650 4.5121E+008 
79700 4.47081E+008 
79750 4.4299E+008 
79800 4.38936E+008 
79850 4.34919E+008 
79900 4.30939E+008 
79950 4.26995E+008 
80000 4.23088E+008 
80050 4.19216E+008 
80100 4.15379E+008 
80150 4.11578E+008 
80200 4.07811E+008 
80250 4.04078E+008 
80300 4.0038E+008 
80350 3.96715E+008 
80400 3.93084E+008 
80450 3.89486E+008 
80500 3.85921E+008 
80550 3.82389E+008 
80600 3.78888E+008 
80650 3.7542E+008 
80700 3.71984E+008 
80750 3.68579E+008 
80800 3.65205E+008 
80850 3.61861E+008 
80900 3.58549E+008 
80950 3.55266E+008 
81000 3.52014E+008 
81050 3.48791E+008 
81100 3.45598E+008 
81150 3.42434E+008 
81200 3.39299E+008 
81250 3.36193E+008 
81300 3.33115E+008 
81350 3.30065E+008 
81400 3.27043E+008 
81450 3.24048E+008 
81500 3.21081E+008 
81550 3.18141E+008 
81600 3.15228E+008 
81650 3.12342E+008 
81700 3.09482E+008 
81750 3.06648E+008 
81800 3.0384E+008 
81850 3.01058E+008 
81900 2.98301E+008 
81950 2.95569E+008 
82000 2.92862E+008 
82050 2.9018E+008 
82100 2.87523E+008 
82150 2.8489E+008 
82200 2.82281E+008 
82250 2.79695E+008 
82300 2.77134E+008 
82350 2.74596E+008 
82400 2.72081E+008 
82450 2.69589E+008 
82500 2.6712E+008 
82550 2.64673E+008 
82600 2.62249E+008 
82650 2.59847E+008 
82700 2.57467E+008 
82750 2.55108E+008 
82800 2.52772E+008 
82850 2.50456E+008 
82900 2.48162E+008 
82950 2.45889E+008 
83000 2.43636E+008 
83050 2.41404E+008 
83100 2.39193E+008 
83150 2.37002E+008 
83200 2.34831E+008 
83250 2.32679E+008 
83300 2.30548E+008 
83350 2.28436E+008 
83400 2.26343E+008 
83450 2.24269E+008 
83500 2.22214E+008 
83550 2.20178E+008 
83600 2.18161E+008 
83650 2.16162E+008 
83700 2.14182E+008 
83750 2.1222E+008 
83800 2.10275E+008 
83850 2.08348E+008 
83900 2.06439E+008 
83950 2.04548E+008 
84000 2.02673E+008 
84050 2.00816E+008 
84100 1.98976E+008 
84150 1.97153E+008 
84200 1.95346E+008 
84250 1.93556E+008 
84300 1.91782E+008 
84350 1.90025E+008 
84400 1.88283E+008 
84450 1.86558E+008 
84500 1.84848E+008 
84550 1.83154E+008 
84600 1.81476E+008 
84650 1.79812E+008 
84700 1.78164E+008 
84750 1.76532E+008 
84800 1.74914E+008 
84850 1.73311E+008 
84900 1.71722E+008 
84950 1.70148E+008 
85000 1.68589E+008 
85050 1.67043E+008 
85100 1.65512E+008 
85150 1.63995E+008 
85200 1.62492E+008 
85250 1.61003E+008 
85300 1.59527E+008 
85350 1.58064E+008 
85400 1.56616E+008 
85450 1.5518E+008 
85500 1.53757E+008 
85550 1.52348E+008 
85600 1.50951E+008 
85650 1.49568E+008 
85700 1.48196E+008 
85750 1.46838E+008 
85800 1.45492E+008 
85850 1.44158E+008 
85900 1.42836E+008 
85950 1.41527E+008 
86000 1.40229E+008 
86050 1.38943E+008 
86100 1.3767E+008 
86150 1.36407E+008 
86200 1.35157E+008 
86250 1.33917E+008 
86300 1.3269E+008 
86350 1.31473E+008 
86400 1.30267E+008 
86450 1.29073E+008 
86500 1.27889E+008 
86550 1.26717E+008 
86600 1.25555E+008 
86650 1.24404E+008 
86700 1.23263E+008 
86750 1.22132E+008 
86800 1.21013E+008 
86850 1.19903E+008 
86900 1.18803E+008 
86950 1.17714E+008 
87000 1.16634E+008 
87050 1.15565E+008 
87100 1.14505E+008 
87150 1.13455E+008 
87200 1.12414E+008 
87250 1.11383E+008 
87300 1.10362E+008 
87350 1.0935E+008 
87400 1.08347E+008 
87450 1.07353E+008 
87500 1.06369E+008 
87550 1.05393E+008 
87600 1.04426E+008 
87650 1.03468E+008 
87700 1.02519E+008 
87750 1.01579E+008 
87800 1.00647E+008 
87850 9.97243E+007 
87900 9.88096E+007 
87950 9.79032E+007 
88000 9.70052E+007 
88050 9.61154E+007 
88100 9.52337E+007 
88150 9.43601E+007 
88200 9.34945E+007 
88250 9.26369E+007 
88300 9.17871E+007 
88350 9.09451E+007 
88400 9.01108E+007 
88450 8.92841E+007 
88500 8.8465E+007 
88550 8.76535E+007 
88600 8.68493E+007 
88650 8.60526E+007 
88700 8.52631E+007 
88750 8.44808E+007 
88800 8.37058E+007 
88850 8.29378E+007 
88900 8.21769E+007 
88950 8.14229E+007 
89000 8.06759E+007 
89050 7.99357E+007 
89100 7.92023E+007 
89150 7.84756E+007 
89200 7.77555E+007 
89250 7.70421E+007 
89300 7.63352E+007 
89350 7.56347E+007 
89400 7.49407E+007 
89450 7.42531E+007 
89500 7.35717E+007 
89550 7.28966E+007 
89600 7.22277E+007 
89650 7.1565E+007 
89700 7.09082E+007 
89750 7.02576E+007 
89800 6.96128E+007 
89850 6.8974E+007 
89900 6.8341E+007 
89950 6.77139E+007 
90000 6.70925E+007 
90050 6.64768E+007 
90100 6.58667E+007 
90150 6.52622E+007 
90200 6.46633E+007 
90250 6.40698E+007 
90300 6.34818E+007 
90350 6.28992E+007 
90400 6.23219E+007 
90450 6.17499E+007 
90500 6.11832E+007 
90550 6.06216E+007 
90600 6.00652E+007 
90650 5.95139E+007 
90700 5.89677E+007 
90750 5.84265E+007 
90800 5.78902E+007 
90850 5.73588E+007 
90900 5.68323E+007 
90950 5.63107E+007 
91000 5.57938E+007 
91050 5.52817E+007 
91100 5.47742E+007 
91150 5.42714E+007 
91200 5.37732E+007 
91250 5.32796E+007 
91300 5.27905E+007 
91350 5.23059E+007 
91400 5.18258E+007 
91450 5.135E+007 
91500 5.08786E+007 
91550 5.04116E+007 
91600 4.99488E+007 
91650 4.94902E+007 
91700 4.90359E+007 
91750 4.85857E+007 
91800 4.81397E+007 
91850 4.76977E+007 
91900 4.72598E+007 
91950 4.68259E+007 
92000 4.6396E+007 
92050 4.59701E+007 
92100 4.5548E+007 
92150 4.51298E+007 
92200 4.47155E+007 
92250 4.43049E+007 
92300 4.38981E+007 
92350 4.34951E+007 
92400 4.30957E+007 
92450 4.27E+007 
92500 4.23079E+007 
92550 4.19195E+007 
92600 4.15346E+007 
92650 4.11532E+007 
92700 4.07753E+007 
92750 4.04009E+007 
92800 4.00299E+007 
92850 3.96623E+007 
92900 3.92981E+007 
92950 3.89373E+007 
93000 3.85797E+007 
93050 3.82254E+007 
93100 3.78744E+007 
93150 3.75266E+007 
93200 3.7182E+007 
93250 3.68406E+007 
93300 3.65022E+007 
93350 3.6167E+007 
93400 3.58349E+007 
93450 3.55058E+007 
93500 3.51797E+007 
93550 3.48566E+007 
93600 3.45365E+007 
93650 3.42193E+007 
93700 3.3905E+007 
93750 3.35937E+007 
93800 3.32851E+007 
93850 3.29794E+007 
93900 3.26765E+007 
93950 3.23764E+007 
94000 3.20791E+007 
94050 3.17844E+007 
94100 3.14925E+007 
94150 3.12032E+007 
94200 3.09166E+007 
94250 3.06327E+007 
94300 3.03513E+007 
94350 3.00725E+007 
94400 2.97963E+007 
94450 2.95226E+007 
94500 2.92514E+007 
94550 2.89827E+007 
94600 2.87165E+007 
94650 2.84527E+007 
94700 2.81914E+007 
94750 2.79324E+007 
94800 2.76758E+007 
94850 2.74216E+007 
94900 2.71697E+007 
94950 2.69201E+007 
95000 2.66728E+007 
95050 2.64278E+007 
95100 2.6185E+007 
95150 2.59444E+007 
95200 2.57061E+007 
95250 2.547E+007 
95300 2.5236E+007 
95350 2.50041E+007 
95400 2.47744E+007 
95450 2.45468E+007 
95500 2.43213E+007 
95550 2.40978E+007 
95600 2.38765E+007 
95650 2.36571E+007 
95700 2.34397E+007 
95750 2.32244E+007 
95800 2.3011E+007 
95850 2.27996E+007 
95900 2.25901E+007 
95950 2.23826E+007 
96000 2.21769E+007 
96050 2.19731E+007 
96100 2.17713E+007 
96150 2.15712E+007 
96200 2.1373E+007 
96250 2.11766E+007 
96300 2.09821E+007 
96350 2.07893E+007 
96400 2.05982E+007 
96450 2.0409E+007 
96500 2.02214E+007 
96550 2.00356E+007 
96600 1.98515E+007 
96650 1.96691E+007 
96700 1.94884E+007 
96750 1.93093E+007 
96800 1.91318E+007 
96850 1.8956E+007 
96900 1.87818E+007 
96950 1.86092E+007 
97000 1.84382E+007 
97050 1.82688E+007 
97100 1.81009E+007 
97150 1.79346E+007 
97200 1.77697E+007 
97250 1.76064E+007 
97300 1.74446E+007 
97350 1.72843E+007 
97400 1.71255E+007 
97450 1.69681E+007 
97500 1.68121E+007 
97550 1.66576E+007 
97600 1.65045E+007 
97650 1.63529E+007 
97700 1.62026E+007 
97750 1.60537E+007 
97800 1.59061E+007 
97850 1.57599E+007 
97900 1.56151E+007 
97950 1.54716E+007 
98000 1.53294E+007 
98050 1.51885E+007 
98100 1.50489E+007 
98150 1.49105E+007 
98200 1.47735E+007 
98250 1.46377E+007 
98300 1.45032E+007 
98350 1.43699E+007 
98400 1.42378E+007 
98450 1.41069E+007 
98500 1.39772E+007 
98550 1.38488E+007 
98600 1.37215E+007 
98650 1.35953E+007 
98700 1.34704E+007 
98750 1.33465E+007 
98800 1.32239E+007 
98850 1.31023E+007 
98900 1.29819E+007 
98950 1.28625E+007 
99000 1.27443E+007 
99050 1.26271E+007 
99100 1.25111E+007 
99150 1.2396E+007 
99200 1.22821E+007 
99250 1.21692E+007 
99300 1.20573E+007 
99350 1.19465E+007 
99400 1.18366E+007 
99450 1.17278E+007 
99500 1.162E+007 
99550 1.15132E+007 
99600 1.14073E+007 
99650 1.13025E+007 
99700 1.11986E+007 
99750 1.10956E+007 
99800 1.09936E+007 
99850 1.08925E+007 
99900 1.07924E+007 
99950 1.06932E+007 
100000 1.05948E+007 
