#F U:\Beamline I20\I20-1_EDE\Wigglers\xop\83mm-small-wiggler\EDE line ranges\0p9T-300mA-0p12x1p0mrad.dat
#C I20EDE 0.9T 300mA 0.12x1.0mrad
#S 1 File written by xplot on Tue Sep 10 16:34:36 2013
#N 2
#L    Energy [eV]  Flux [ph/s/0.1%bw]
50 8.45923E+012 
100 1.34072E+013 
150 1.75264E+013 
200 2.11693E+013 
250 2.44823E+013 
300 2.75443E+013 
350 3.0404E+013 
400 3.30943E+013 
450 3.56389E+013 
500 3.80553E+013 
550 4.03571E+013 
600 4.25555E+013 
650 4.46591E+013 
700 4.66755E+013 
750 4.86109E+013 
800 5.04706E+013 
850 5.22594E+013 
900 5.39812E+013 
950 5.56397E+013 
1000 5.72381E+013 
1050 5.87793E+013 
1100 6.02658E+013 
1150 6.17001E+013 
1200 6.30843E+013 
1250 6.44205E+013 
1300 6.57104E+013 
1350 6.69558E+013 
1400 6.81582E+013 
1450 6.93191E+013 
1500 7.044E+013 
1550 7.15222E+013 
1600 7.25668E+013 
1650 7.3575E+013 
1700 7.4548E+013 
1750 7.54867E+013 
1800 7.63922E+013 
1850 7.72654E+013 
1900 7.81073E+013 
1950 7.89186E+013 
2000 7.97003E+013 
2050 8.0453E+013 
2100 8.11776E+013 
2150 8.18748E+013 
2200 8.25453E+013 
2250 8.31898E+013 
2300 8.38089E+013 
2350 8.44033E+013 
2400 8.49736E+013 
2450 8.55203E+013 
2500 8.6044E+013 
2550 8.65453E+013 
2600 8.70248E+013 
2650 8.74829E+013 
2700 8.79201E+013 
2750 8.8337E+013 
2800 8.8734E+013 
2850 8.91115E+013 
2900 8.94701E+013 
2950 8.98101E+013 
3000 9.01321E+013 
3050 9.04363E+013 
3100 9.07232E+013 
3150 9.09932E+013 
3200 9.12467E+013 
3250 9.14841E+013 
3300 9.17057E+013 
3350 9.19119E+013 
3400 9.2103E+013 
3450 9.22794E+013 
3500 9.24414E+013 
3550 9.25893E+013 
3600 9.27234E+013 
3650 9.28441E+013 
3700 9.29517E+013 
3750 9.30464E+013 
3800 9.31286E+013 
3850 9.31985E+013 
3900 9.32564E+013 
3950 9.33026E+013 
4000 9.33373E+013 
4050 9.33609E+013 
4100 9.33735E+013 
4150 9.33754E+013 
4200 9.33669E+013 
4250 9.33481E+013 
4300 9.33194E+013 
4350 9.3281E+013 
4400 9.32331E+013 
4450 9.31758E+013 
4500 9.31095E+013 
4550 9.30343E+013 
4600 9.29505E+013 
4650 9.28582E+013 
4700 9.27577E+013 
4750 9.26491E+013 
4800 9.25326E+013 
4850 9.24085E+013 
4900 9.22769E+013 
4950 9.2138E+013 
5000 9.19919E+013 
5050 9.18389E+013 
5100 9.16791E+013 
5150 9.15127E+013 
5200 9.13398E+013 
5250 9.11606E+013 
5300 9.09754E+013 
5350 9.07841E+013 
5400 9.0587E+013 
5450 9.03842E+013 
5500 9.01759E+013 
5550 8.99622E+013 
5600 8.97433E+013 
5650 8.95192E+013 
5700 8.92902E+013 
5750 8.90564E+013 
5800 8.88178E+013 
5850 8.85747E+013 
5900 8.83271E+013 
5950 8.80752E+013 
6000 8.78191E+013 
6050 8.75589E+013 
6100 8.72947E+013 
6150 8.70267E+013 
6200 8.67549E+013 
6250 8.64795E+013 
6300 8.62006E+013 
6350 8.59183E+013 
6400 8.56326E+013 
6450 8.53437E+013 
6500 8.50518E+013 
6550 8.47568E+013 
6600 8.44589E+013 
6650 8.41581E+013 
6700 8.38547E+013 
6750 8.35486E+013 
6800 8.32399E+013 
6850 8.29288E+013 
6900 8.26154E+013 
6950 8.22996E+013 
7000 8.19816E+013 
7050 8.16616E+013 
7100 8.13394E+013 
7150 8.10153E+013 
7200 8.06893E+013 
7250 8.03615E+013 
7300 8.0032E+013 
7350 7.97008E+013 
7400 7.9368E+013 
7450 7.90337E+013 
7500 7.86979E+013 
7550 7.83607E+013 
7600 7.80222E+013 
7650 7.76825E+013 
7700 7.73415E+013 
7750 7.69994E+013 
7800 7.66563E+013 
7850 7.63121E+013 
7900 7.59669E+013 
7950 7.56209E+013 
8000 7.5274E+013 
8050 7.49264E+013 
8100 7.4578E+013 
8150 7.42289E+013 
8200 7.38792E+013 
8250 7.35289E+013 
8300 7.31781E+013 
8350 7.28268E+013 
8400 7.24751E+013 
8450 7.2123E+013 
8500 7.17705E+013 
8550 7.14177E+013 
8600 7.10647E+013 
8650 7.07115E+013 
8700 7.03582E+013 
8750 7.00047E+013 
8800 6.96511E+013 
8850 6.92975E+013 
8900 6.89438E+013 
8950 6.85902E+013 
9000 6.82367E+013 
9050 6.78833E+013 
9100 6.753E+013 
9150 6.71769E+013 
9200 6.6824E+013 
9250 6.64713E+013 
9300 6.61189E+013 
9350 6.57669E+013 
9400 6.54151E+013 
9450 6.50638E+013 
9500 6.47128E+013 
9550 6.43622E+013 
9600 6.40122E+013 
9650 6.36625E+013 
9700 6.33134E+013 
9750 6.29649E+013 
9800 6.26169E+013 
9850 6.22695E+013 
9900 6.19227E+013 
9950 6.15765E+013 
10000 6.1231E+013 
10050 6.08862E+013 
10100 6.05421E+013 
10150 6.01987E+013 
10200 5.9856E+013 
10250 5.95142E+013 
10300 5.91731E+013 
10350 5.88328E+013 
10400 5.84934E+013 
10450 5.81548E+013 
10500 5.7817E+013 
10550 5.74802E+013 
10600 5.71442E+013 
10650 5.68092E+013 
10700 5.64751E+013 
10750 5.6142E+013 
10800 5.58098E+013 
10850 5.54786E+013 
10900 5.51483E+013 
10950 5.48192E+013 
11000 5.4491E+013 
11050 5.41638E+013 
11100 5.38377E+013 
11150 5.35127E+013 
11200 5.31887E+013 
11250 5.28659E+013 
11300 5.25441E+013 
11350 5.22234E+013 
11400 5.19039E+013 
11450 5.15855E+013 
11500 5.12682E+013 
11550 5.09521E+013 
11600 5.06371E+013 
11650 5.03233E+013 
11700 5.00107E+013 
11750 4.96993E+013 
11800 4.93891E+013 
11850 4.908E+013 
11900 4.87722E+013 
11950 4.84656E+013 
12000 4.81602E+013 
12050 4.78561E+013 
12100 4.75532E+013 
12150 4.72515E+013 
12200 4.69511E+013 
12250 4.6652E+013 
12300 4.63541E+013 
12350 4.60574E+013 
12400 4.57621E+013 
12450 4.5468E+013 
12500 4.51752E+013 
12550 4.48837E+013 
12600 4.45935E+013 
12650 4.43046E+013 
12700 4.4017E+013 
12750 4.37306E+013 
12800 4.34456E+013 
12850 4.31619E+013 
12900 4.28795E+013 
12950 4.25984E+013 
13000 4.23186E+013 
13050 4.20402E+013 
13100 4.1763E+013 
13150 4.14872E+013 
13200 4.12127E+013 
13250 4.09396E+013 
13300 4.06677E+013 
13350 4.03972E+013 
13400 4.01281E+013 
13450 3.98602E+013 
13500 3.95937E+013 
13550 3.93285E+013 
13600 3.90646E+013 
13650 3.88021E+013 
13700 3.85409E+013 
13750 3.8281E+013 
13800 3.80225E+013 
13850 3.77653E+013 
13900 3.75094E+013 
13950 3.72548E+013 
14000 3.70016E+013 
14050 3.67497E+013 
14100 3.64992E+013 
14150 3.625E+013 
14200 3.6002E+013 
14250 3.57555E+013 
14300 3.55102E+013 
14350 3.52662E+013 
14400 3.50236E+013 
14450 3.47823E+013 
14500 3.45423E+013 
14550 3.43037E+013 
14600 3.40663E+013 
14650 3.38302E+013 
14700 3.35955E+013 
14750 3.3362E+013 
14800 3.31299E+013 
14850 3.28991E+013 
14900 3.26695E+013 
14950 3.24413E+013 
15000 3.22143E+013 
15050 3.19887E+013 
15100 3.17643E+013 
15150 3.15412E+013 
15200 3.13194E+013 
15250 3.10988E+013 
15300 3.08796E+013 
15350 3.06616E+013 
15400 3.04449E+013 
15450 3.02294E+013 
15500 3.00152E+013 
15550 2.98023E+013 
15600 2.95906E+013 
15650 2.93802E+013 
15700 2.9171E+013 
15750 2.8963E+013 
15800 2.87563E+013 
15850 2.85508E+013 
15900 2.83466E+013 
15950 2.81436E+013 
16000 2.79418E+013 
16050 2.77412E+013 
16100 2.75419E+013 
16150 2.73437E+013 
16200 2.71468E+013 
16250 2.69511E+013 
16300 2.67565E+013 
16350 2.65632E+013 
16400 2.6371E+013 
16450 2.61801E+013 
16500 2.59903E+013 
16550 2.58017E+013 
16600 2.56142E+013 
16650 2.5428E+013 
16700 2.52429E+013 
16750 2.50589E+013 
16800 2.48761E+013 
16850 2.46945E+013 
16900 2.4514E+013 
16950 2.43346E+013 
17000 2.41564E+013 
17050 2.39793E+013 
17100 2.38034E+013 
17150 2.36285E+013 
17200 2.34548E+013 
17250 2.32822E+013 
17300 2.31107E+013 
17350 2.29403E+013 
17400 2.2771E+013 
17450 2.26027E+013 
17500 2.24356E+013 
17550 2.22696E+013 
17600 2.21046E+013 
17650 2.19407E+013 
17700 2.17779E+013 
17750 2.16161E+013 
17800 2.14554E+013 
17850 2.12958E+013 
17900 2.11372E+013 
17950 2.09797E+013 
18000 2.08231E+013 
18050 2.06676E+013 
18100 2.05132E+013 
18150 2.03598E+013 
18200 2.02074E+013 
18250 2.0056E+013 
18300 1.99056E+013 
18350 1.97562E+013 
18400 1.96078E+013 
18450 1.94604E+013 
18500 1.9314E+013 
18550 1.91686E+013 
18600 1.90242E+013 
18650 1.88807E+013 
18700 1.87382E+013 
18750 1.85967E+013 
18800 1.84561E+013 
18850 1.83165E+013 
18900 1.81778E+013 
18950 1.80401E+013 
19000 1.79033E+013 
19050 1.77674E+013 
19100 1.76325E+013 
19150 1.74985E+013 
19200 1.73654E+013 
19250 1.72333E+013 
19300 1.7102E+013 
19350 1.69716E+013 
19400 1.68422E+013 
19450 1.67136E+013 
19500 1.6586E+013 
19550 1.64592E+013 
19600 1.63333E+013 
19650 1.62082E+013 
19700 1.60841E+013 
19750 1.59608E+013 
19800 1.58383E+013 
19850 1.57168E+013 
19900 1.5596E+013 
19950 1.54761E+013 
20000 1.53571E+013 
20050 1.52389E+013 
20100 1.51215E+013 
20150 1.5005E+013 
20200 1.48892E+013 
20250 1.47743E+013 
20300 1.46602E+013 
20350 1.45469E+013 
20400 1.44344E+013 
20450 1.43227E+013 
20500 1.42118E+013 
20550 1.41017E+013 
20600 1.39924E+013 
20650 1.38838E+013 
20700 1.37761E+013 
20750 1.36691E+013 
20800 1.35628E+013 
20850 1.34573E+013 
20900 1.33526E+013 
20950 1.32487E+013 
21000 1.31454E+013 
21050 1.3043E+013 
21100 1.29412E+013 
21150 1.28402E+013 
21200 1.27399E+013 
21250 1.26404E+013 
21300 1.25415E+013 
21350 1.24434E+013 
21400 1.2346E+013 
21450 1.22493E+013 
21500 1.21533E+013 
21550 1.2058E+013 
21600 1.19634E+013 
21650 1.18695E+013 
21700 1.17762E+013 
21750 1.16837E+013 
21800 1.15918E+013 
21850 1.15006E+013 
21900 1.14101E+013 
21950 1.13202E+013 
22000 1.1231E+013 
22050 1.11424E+013 
22100 1.10545E+013 
22150 1.09672E+013 
22200 1.08806E+013 
22250 1.07946E+013 
22300 1.07093E+013 
22350 1.06246E+013 
22400 1.05405E+013 
22450 1.0457E+013 
22500 1.03742E+013 
22550 1.02919E+013 
22600 1.02103E+013 
22650 1.01293E+013 
22700 1.00489E+013 
22750 9.96905E+012 
22800 9.88982E+012 
22850 9.81119E+012 
22900 9.73314E+012 
22950 9.65568E+012 
23000 9.57879E+012 
23050 9.50248E+012 
23100 9.42674E+012 
23150 9.35156E+012 
23200 9.27695E+012 
23250 9.2029E+012 
23300 9.12941E+012 
23350 9.05647E+012 
23400 8.98408E+012 
23450 8.91223E+012 
23500 8.84092E+012 
23550 8.77015E+012 
23600 8.69991E+012 
23650 8.63021E+012 
23700 8.56103E+012 
23750 8.49238E+012 
23800 8.42424E+012 
23850 8.35662E+012 
23900 8.28951E+012 
23950 8.22291E+012 
24000 8.15682E+012 
24050 8.09123E+012 
24100 8.02614E+012 
24150 7.96154E+012 
24200 7.89744E+012 
24250 7.83382E+012 
24300 7.77069E+012 
24350 7.70804E+012 
24400 7.64587E+012 
24450 7.58418E+012 
24500 7.52295E+012 
24550 7.4622E+012 
24600 7.40191E+012 
24650 7.34208E+012 
24700 7.28271E+012 
24750 7.2238E+012 
24800 7.16534E+012 
24850 7.10732E+012 
24900 7.04976E+012 
24950 6.99264E+012 
25000 6.93595E+012 
25050 6.87971E+012 
25100 6.82389E+012 
25150 6.76851E+012 
25200 6.71356E+012 
25250 6.65903E+012 
25300 6.60492E+012 
25350 6.55123E+012 
25400 6.49796E+012 
25450 6.44509E+012 
25500 6.39264E+012 
25550 6.3406E+012 
25600 6.28896E+012 
25650 6.23772E+012 
25700 6.18687E+012 
25750 6.13643E+012 
25800 6.08637E+012 
25850 6.03671E+012 
25900 5.98743E+012 
25950 5.93854E+012 
26000 5.89002E+012 
26050 5.84189E+012 
26100 5.79413E+012 
26150 5.74675E+012 
26200 5.69973E+012 
26250 5.65309E+012 
26300 5.60681E+012 
26350 5.56088E+012 
26400 5.51533E+012 
26450 5.47012E+012 
26500 5.42528E+012 
26550 5.38078E+012 
26600 5.33663E+012 
26650 5.29283E+012 
26700 5.24938E+012 
26750 5.20626E+012 
26800 5.16349E+012 
26850 5.12105E+012 
26900 5.07895E+012 
26950 5.03718E+012 
27000 4.99574E+012 
27050 4.95462E+012 
27100 4.91383E+012 
27150 4.87336E+012 
27200 4.83322E+012 
27250 4.79339E+012 
27300 4.75387E+012 
27350 4.71467E+012 
27400 4.67578E+012 
27450 4.63719E+012 
27500 4.59892E+012 
27550 4.56094E+012 
27600 4.52327E+012 
27650 4.4859E+012 
27700 4.44882E+012 
27750 4.41204E+012 
27800 4.37555E+012 
27850 4.33935E+012 
27900 4.30344E+012 
27950 4.26781E+012 
28000 4.23247E+012 
28050 4.19741E+012 
28100 4.16263E+012 
28150 4.12813E+012 
28200 4.0939E+012 
28250 4.05995E+012 
28300 4.02627E+012 
28350 3.99286E+012 
28400 3.95971E+012 
28450 3.92683E+012 
28500 3.89421E+012 
28550 3.86186E+012 
28600 3.82976E+012 
28650 3.79792E+012 
28700 3.76634E+012 
28750 3.73501E+012 
28800 3.70393E+012 
28850 3.6731E+012 
28900 3.64252E+012 
28950 3.61218E+012 
29000 3.58209E+012 
29050 3.55224E+012 
29100 3.52263E+012 
29150 3.49326E+012 
29200 3.46413E+012 
29250 3.43523E+012 
29300 3.40656E+012 
29350 3.37813E+012 
29400 3.34992E+012 
29450 3.32195E+012 
29500 3.29419E+012 
29550 3.26667E+012 
29600 3.23936E+012 
29650 3.21228E+012 
29700 3.18541E+012 
29750 3.15876E+012 
29800 3.13233E+012 
29850 3.10612E+012 
29900 3.08011E+012 
29950 3.05432E+012 
30000 3.02873E+012 
30050 3.00335E+012 
30100 2.97818E+012 
30150 2.95321E+012 
30200 2.92845E+012 
30250 2.90389E+012 
30300 2.87952E+012 
30350 2.85536E+012 
30400 2.83139E+012 
30450 2.80762E+012 
30500 2.78404E+012 
30550 2.76065E+012 
30600 2.73745E+012 
30650 2.71444E+012 
30700 2.69162E+012 
30750 2.66899E+012 
30800 2.64654E+012 
30850 2.62427E+012 
30900 2.60219E+012 
30950 2.58028E+012 
31000 2.55856E+012 
31050 2.53701E+012 
31100 2.51564E+012 
31150 2.49444E+012 
31200 2.47342E+012 
31250 2.45257E+012 
31300 2.43189E+012 
31350 2.41138E+012 
31400 2.39104E+012 
31450 2.37086E+012 
31500 2.35085E+012 
31550 2.331E+012 
31600 2.31132E+012 
31650 2.2918E+012 
31700 2.27244E+012 
31750 2.25324E+012 
31800 2.23419E+012 
31850 2.21531E+012 
31900 2.19657E+012 
31950 2.17799E+012 
32000 2.15957E+012 
32050 2.1413E+012 
32100 2.12317E+012 
32150 2.1052E+012 
32200 2.08737E+012 
32250 2.0697E+012 
32300 2.05216E+012 
32350 2.03477E+012 
32400 2.01753E+012 
32450 2.00043E+012 
32500 1.98347E+012 
32550 1.96665E+012 
32600 1.94996E+012 
32650 1.93342E+012 
32700 1.91701E+012 
32750 1.90074E+012 
32800 1.8846E+012 
32850 1.8686E+012 
32900 1.85273E+012 
32950 1.83699E+012 
33000 1.82138E+012 
33050 1.8059E+012 
33100 1.79055E+012 
33150 1.77533E+012 
33200 1.76023E+012 
33250 1.74526E+012 
33300 1.73041E+012 
33350 1.71568E+012 
33400 1.70108E+012 
33450 1.6866E+012 
33500 1.67224E+012 
33550 1.65799E+012 
33600 1.64387E+012 
33650 1.62986E+012 
33700 1.61598E+012 
33750 1.6022E+012 
33800 1.58854E+012 
33850 1.575E+012 
33900 1.56156E+012 
33950 1.54824E+012 
34000 1.53503E+012 
34050 1.52193E+012 
34100 1.50894E+012 
34150 1.49606E+012 
34200 1.48329E+012 
34250 1.47062E+012 
34300 1.45806E+012 
34350 1.4456E+012 
34400 1.43325E+012 
34450 1.421E+012 
34500 1.40885E+012 
34550 1.3968E+012 
34600 1.38486E+012 
34650 1.37301E+012 
34700 1.36127E+012 
34750 1.34962E+012 
34800 1.33807E+012 
34850 1.32661E+012 
34900 1.31525E+012 
34950 1.30399E+012 
35000 1.29282E+012 
35050 1.28175E+012 
35100 1.27077E+012 
35150 1.25988E+012 
35200 1.24908E+012 
35250 1.23837E+012 
35300 1.22775E+012 
35350 1.21722E+012 
35400 1.20678E+012 
35450 1.19643E+012 
35500 1.18616E+012 
35550 1.17599E+012 
35600 1.16589E+012 
35650 1.15588E+012 
35700 1.14596E+012 
35750 1.13612E+012 
35800 1.12636E+012 
35850 1.11668E+012 
35900 1.10708E+012 
35950 1.09757E+012 
36000 1.08814E+012 
36050 1.07878E+012 
36100 1.0695E+012 
36150 1.06031E+012 
36200 1.05119E+012 
36250 1.04214E+012 
36300 1.03318E+012 
36350 1.02429E+012 
36400 1.01547E+012 
36450 1.00673E+012 
36500 9.98059E+011 
36550 9.89464E+011 
36600 9.80942E+011 
36650 9.72492E+011 
36700 9.64113E+011 
36750 9.55805E+011 
36800 9.47567E+011 
36850 9.39399E+011 
36900 9.313E+011 
36950 9.23269E+011 
37000 9.15306E+011 
37050 9.07411E+011 
37100 8.99583E+011 
37150 8.91821E+011 
37200 8.84124E+011 
37250 8.76493E+011 
37300 8.68926E+011 
37350 8.61424E+011 
37400 8.53985E+011 
37450 8.4661E+011 
37500 8.39296E+011 
37550 8.32045E+011 
37600 8.24856E+011 
37650 8.17727E+011 
37700 8.10659E+011 
37750 8.03651E+011 
37800 7.96702E+011 
37850 7.89813E+011 
37900 7.82982E+011 
37950 7.76209E+011 
38000 7.69493E+011 
38050 7.62835E+011 
38100 7.56233E+011 
38150 7.49688E+011 
38200 7.43198E+011 
38250 7.36763E+011 
38300 7.30383E+011 
38350 7.24058E+011 
38400 7.17786E+011 
38450 7.11567E+011 
38500 7.05402E+011 
38550 6.99289E+011 
38600 6.93228E+011 
38650 6.87219E+011 
38700 6.81261E+011 
38750 6.75354E+011 
38800 6.69497E+011 
38850 6.63691E+011 
38900 6.57933E+011 
38950 6.52225E+011 
39000 6.46566E+011 
39050 6.40955E+011 
39100 6.35392E+011 
39150 6.29876E+011 
39200 6.24407E+011 
39250 6.18985E+011 
39300 6.1361E+011 
39350 6.0828E+011 
39400 6.02996E+011 
39450 5.97757E+011 
39500 5.92563E+011 
39550 5.87413E+011 
39600 5.82308E+011 
39650 5.77246E+011 
39700 5.72227E+011 
39750 5.67251E+011 
39800 5.62318E+011 
39850 5.57427E+011 
39900 5.52578E+011 
39950 5.47771E+011 
40000 5.43004E+011 
40050 5.38279E+011 
40100 5.33594E+011 
40150 5.28949E+011 
40200 5.24344E+011 
40250 5.19779E+011 
40300 5.15253E+011 
40350 5.10765E+011 
40400 5.06316E+011 
40450 5.01905E+011 
40500 4.97532E+011 
40550 4.93197E+011 
40600 4.88899E+011 
40650 4.84637E+011 
40700 4.80412E+011 
40750 4.76224E+011 
40800 4.72072E+011 
40850 4.67955E+011 
40900 4.63874E+011 
40950 4.59827E+011 
41000 4.55816E+011 
41050 4.51839E+011 
41100 4.47896E+011 
41150 4.43987E+011 
41200 4.40112E+011 
41250 4.3627E+011 
41300 4.32461E+011 
41350 4.28685E+011 
41400 4.24941E+011 
41450 4.2123E+011 
41500 4.1755E+011 
41550 4.13903E+011 
41600 4.10286E+011 
41650 4.06701E+011 
41700 4.03147E+011 
41750 3.99623E+011 
41800 3.9613E+011 
41850 3.92667E+011 
41900 3.89234E+011 
41950 3.8583E+011 
42000 3.82456E+011 
42050 3.79111E+011 
42100 3.75795E+011 
42150 3.72507E+011 
42200 3.69248E+011 
42250 3.66016E+011 
42300 3.62813E+011 
42350 3.59638E+011 
42400 3.56489E+011 
42450 3.53368E+011 
42500 3.50274E+011 
42550 3.47207E+011 
42600 3.44166E+011 
42650 3.41152E+011 
42700 3.38163E+011 
42750 3.35201E+011 
42800 3.32264E+011 
42850 3.29352E+011 
42900 3.26466E+011 
42950 3.23605E+011 
43000 3.20768E+011 
43050 3.17956E+011 
43100 3.15168E+011 
43150 3.12404E+011 
43200 3.09665E+011 
43250 3.06949E+011 
43300 3.04256E+011 
43350 3.01587E+011 
43400 2.98941E+011 
43450 2.96318E+011 
43500 2.93718E+011 
43550 2.9114E+011 
43600 2.88584E+011 
43650 2.86051E+011 
43700 2.8354E+011 
43750 2.8105E+011 
43800 2.78582E+011 
43850 2.76136E+011 
43900 2.7371E+011 
43950 2.71306E+011 
44000 2.68922E+011 
44050 2.6656E+011 
44100 2.64217E+011 
44150 2.61896E+011 
44200 2.59594E+011 
44250 2.57312E+011 
44300 2.5505E+011 
44350 2.52808E+011 
44400 2.50585E+011 
44450 2.48382E+011 
44500 2.46197E+011 
44550 2.44032E+011 
44600 2.41885E+011 
44650 2.39757E+011 
44700 2.37648E+011 
44750 2.35557E+011 
44800 2.33484E+011 
44850 2.31429E+011 
44900 2.29392E+011 
44950 2.27373E+011 
45000 2.25372E+011 
45050 2.23387E+011 
45100 2.21421E+011 
45150 2.19471E+011 
45200 2.17538E+011 
45250 2.15622E+011 
45300 2.13722E+011 
45350 2.1184E+011 
45400 2.09973E+011 
45450 2.08123E+011 
45500 2.06289E+011 
45550 2.04471E+011 
45600 2.02669E+011 
45650 2.00883E+011 
45700 1.99112E+011 
45750 1.97356E+011 
45800 1.95616E+011 
45850 1.93891E+011 
45900 1.92181E+011 
45950 1.90486E+011 
46000 1.88806E+011 
46050 1.87141E+011 
46100 1.8549E+011 
46150 1.83853E+011 
46200 1.82231E+011 
46250 1.80623E+011 
46300 1.79028E+011 
46350 1.77448E+011 
46400 1.75882E+011 
46450 1.74329E+011 
46500 1.7279E+011 
46550 1.71264E+011 
46600 1.69752E+011 
46650 1.68253E+011 
46700 1.66767E+011 
46750 1.65294E+011 
46800 1.63834E+011 
46850 1.62386E+011 
46900 1.60951E+011 
46950 1.59529E+011 
47000 1.58119E+011 
47050 1.56722E+011 
47100 1.55337E+011 
47150 1.53964E+011 
47200 1.52603E+011 
47250 1.51253E+011 
47300 1.49916E+011 
47350 1.48591E+011 
47400 1.47276E+011 
47450 1.45974E+011 
47500 1.44683E+011 
47550 1.43403E+011 
47600 1.42134E+011 
47650 1.40877E+011 
47700 1.3963E+011 
47750 1.38395E+011 
47800 1.3717E+011 
47850 1.35956E+011 
47900 1.34753E+011 
47950 1.3356E+011 
48000 1.32378E+011 
48050 1.31206E+011 
48100 1.30044E+011 
48150 1.28892E+011 
48200 1.27751E+011 
48250 1.2662E+011 
48300 1.25498E+011 
48350 1.24387E+011 
48400 1.23285E+011 
48450 1.22192E+011 
48500 1.2111E+011 
48550 1.20037E+011 
48600 1.18973E+011 
48650 1.17918E+011 
48700 1.16873E+011 
48750 1.15838E+011 
48800 1.14811E+011 
48850 1.13793E+011 
48900 1.12784E+011 
48950 1.11784E+011 
49000 1.10793E+011 
49050 1.0981E+011 
49100 1.08836E+011 
49150 1.07871E+011 
49200 1.06914E+011 
49250 1.05966E+011 
49300 1.05026E+011 
49350 1.04094E+011 
49400 1.0317E+011 
49450 1.02255E+011 
49500 1.01347E+011 
49550 1.00448E+011 
49600 9.9556E+010 
49650 9.86723E+010 
49700 9.77964E+010 
49750 9.69281E+010 
49800 9.60675E+010 
49850 9.52145E+010 
49900 9.4369E+010 
49950 9.35309E+010 
50000 9.27002E+010 
50050 9.18768E+010 
50100 9.10607E+010 
50150 9.02518E+010 
50200 8.94499E+010 
50250 8.86552E+010 
50300 8.78674E+010 
50350 8.70866E+010 
50400 8.63127E+010 
50450 8.55456E+010 
50500 8.47852E+010 
50550 8.40316E+010 
50600 8.32846E+010 
50650 8.25441E+010 
50700 8.18102E+010 
50750 8.10828E+010 
50800 8.03618E+010 
50850 7.96471E+010 
50900 7.89388E+010 
50950 7.82367E+010 
51000 7.75408E+010 
51050 7.6851E+010 
51100 7.61673E+010 
51150 7.54897E+010 
51200 7.4818E+010 
51250 7.41523E+010 
51300 7.34924E+010 
51350 7.28384E+010 
51400 7.21901E+010 
51450 7.15475E+010 
51500 7.09107E+010 
51550 7.02794E+010 
51600 6.96537E+010 
51650 6.90336E+010 
51700 6.84189E+010 
51750 6.78097E+010 
51800 6.72058E+010 
51850 6.66073E+010 
51900 6.60141E+010 
51950 6.54261E+010 
52000 6.48433E+010 
52050 6.42656E+010 
52100 6.36931E+010 
52150 6.31256E+010 
52200 6.25632E+010 
52250 6.20057E+010 
52300 6.14531E+010 
52350 6.09054E+010 
52400 6.03626E+010 
52450 5.98246E+010 
52500 5.92913E+010 
52550 5.87628E+010 
52600 5.82389E+010 
52650 5.77197E+010 
52700 5.7205E+010 
52750 5.66949E+010 
52800 5.61893E+010 
52850 5.56882E+010 
52900 5.51916E+010 
52950 5.46993E+010 
53000 5.42114E+010 
53050 5.37278E+010 
53100 5.32485E+010 
53150 5.27734E+010 
53200 5.23026E+010 
53250 5.18359E+010 
53300 5.13733E+010 
53350 5.09149E+010 
53400 5.04605E+010 
53450 5.00101E+010 
53500 4.95637E+010 
53550 4.91213E+010 
53600 4.86828E+010 
53650 4.82482E+010 
53700 4.78174E+010 
53750 4.73905E+010 
53800 4.69673E+010 
53850 4.65479E+010 
53900 4.61322E+010 
53950 4.57202E+010 
54000 4.53119E+010 
54050 4.49072E+010 
54100 4.4506E+010 
54150 4.41084E+010 
54200 4.37144E+010 
54250 4.33238E+010 
54300 4.29367E+010 
54350 4.25531E+010 
54400 4.21728E+010 
54450 4.17959E+010 
54500 4.14224E+010 
54550 4.10522E+010 
54600 4.06852E+010 
54650 4.03216E+010 
54700 3.99611E+010 
54750 3.96039E+010 
54800 3.92498E+010 
54850 3.88989E+010 
54900 3.85511E+010 
54950 3.82063E+010 
55000 3.78647E+010 
55050 3.7526E+010 
55100 3.71904E+010 
55150 3.68578E+010 
55200 3.65281E+010 
55250 3.62013E+010 
55300 3.58775E+010 
55350 3.55565E+010 
55400 3.52384E+010 
55450 3.49231E+010 
55500 3.46106E+010 
55550 3.43009E+010 
55600 3.3994E+010 
55650 3.36897E+010 
55700 3.33882E+010 
55750 3.30894E+010 
55800 3.27932E+010 
55850 3.24996E+010 
55900 3.22087E+010 
55950 3.19203E+010 
56000 3.16346E+010 
56050 3.13513E+010 
56100 3.10706E+010 
56150 3.07923E+010 
56200 3.05166E+010 
56250 3.02433E+010 
56300 2.99724E+010 
56350 2.9704E+010 
56400 2.94379E+010 
56450 2.91742E+010 
56500 2.89129E+010 
56550 2.86538E+010 
56600 2.83971E+010 
56650 2.81427E+010 
56700 2.78905E+010 
56750 2.76406E+010 
56800 2.73929E+010 
56850 2.71474E+010 
56900 2.69041E+010 
56950 2.6663E+010 
57000 2.6424E+010 
57050 2.61871E+010 
57100 2.59524E+010 
57150 2.57197E+010 
57200 2.54891E+010 
57250 2.52606E+010 
57300 2.50341E+010 
57350 2.48097E+010 
57400 2.45872E+010 
57450 2.43667E+010 
57500 2.41482E+010 
57550 2.39316E+010 
57600 2.3717E+010 
57650 2.35042E+010 
57700 2.32934E+010 
57750 2.30844E+010 
57800 2.28773E+010 
57850 2.26721E+010 
57900 2.24687E+010 
57950 2.22671E+010 
58000 2.20673E+010 
58050 2.18693E+010 
58100 2.1673E+010 
58150 2.14785E+010 
58200 2.12858E+010 
58250 2.10947E+010 
58300 2.09054E+010 
58350 2.07177E+010 
58400 2.05317E+010 
58450 2.03474E+010 
58500 2.01647E+010 
58550 1.99837E+010 
58600 1.98043E+010 
58650 1.96265E+010 
58700 1.94502E+010 
58750 1.92756E+010 
58800 1.91025E+010 
58850 1.89309E+010 
58900 1.87609E+010 
58950 1.85924E+010 
59000 1.84254E+010 
59050 1.82599E+010 
59100 1.80958E+010 
59150 1.79333E+010 
59200 1.77722E+010 
59250 1.76125E+010 
59300 1.74542E+010 
59350 1.72974E+010 
59400 1.7142E+010 
59450 1.6988E+010 
59500 1.68353E+010 
59550 1.6684E+010 
59600 1.6534E+010 
59650 1.63854E+010 
59700 1.62381E+010 
59750 1.60922E+010 
59800 1.59475E+010 
59850 1.58042E+010 
59900 1.56621E+010 
59950 1.55213E+010 
60000 1.53817E+010 
60050 1.52434E+010 
60100 1.51064E+010 
60150 1.49705E+010 
60200 1.48359E+010 
60250 1.47025E+010 
60300 1.45702E+010 
60350 1.44392E+010 
60400 1.43093E+010 
60450 1.41806E+010 
60500 1.40531E+010 
60550 1.39266E+010 
60600 1.38014E+010 
60650 1.36772E+010 
60700 1.35541E+010 
60750 1.34322E+010 
60800 1.33113E+010 
60850 1.31915E+010 
60900 1.30728E+010 
60950 1.29552E+010 
61000 1.28386E+010 
61050 1.27231E+010 
61100 1.26085E+010 
61150 1.24951E+010 
61200 1.23826E+010 
61250 1.22711E+010 
61300 1.21607E+010 
61350 1.20512E+010 
61400 1.19427E+010 
61450 1.18352E+010 
61500 1.17286E+010 
61550 1.1623E+010 
61600 1.15184E+010 
61650 1.14146E+010 
61700 1.13119E+010 
61750 1.121E+010 
61800 1.1109E+010 
61850 1.1009E+010 
61900 1.09098E+010 
61950 1.08116E+010 
62000 1.07142E+010 
62050 1.06177E+010 
62100 1.0522E+010 
62150 1.04272E+010 
62200 1.03333E+010 
62250 1.02402E+010 
62300 1.01479E+010 
62350 1.00565E+010 
62400 9.96587E+009 
62450 9.87607E+009 
62500 9.78707E+009 
62550 9.69887E+009 
62600 9.61146E+009 
62650 9.52484E+009 
62700 9.43899E+009 
62750 9.35391E+009 
62800 9.2696E+009 
62850 9.18604E+009 
62900 9.10323E+009 
62950 9.02117E+009 
63000 8.93984E+009 
63050 8.85924E+009 
63100 8.77936E+009 
63150 8.70021E+009 
63200 8.62176E+009 
63250 8.54401E+009 
63300 8.46697E+009 
63350 8.39061E+009 
63400 8.31494E+009 
63450 8.23995E+009 
63500 8.16564E+009 
63550 8.09199E+009 
63600 8.019E+009 
63650 7.94667E+009 
63700 7.87498E+009 
63750 7.80394E+009 
63800 7.73354E+009 
63850 7.66377E+009 
63900 7.59463E+009 
63950 7.52611E+009 
64000 7.4582E+009 
64050 7.39091E+009 
64100 7.32422E+009 
64150 7.25812E+009 
64200 7.19263E+009 
64250 7.12771E+009 
64300 7.06339E+009 
64350 6.99964E+009 
64400 6.93646E+009 
64450 6.87385E+009 
64500 6.81181E+009 
64550 6.75032E+009 
64600 6.68939E+009 
64650 6.629E+009 
64700 6.56915E+009 
64750 6.50985E+009 
64800 6.45107E+009 
64850 6.39283E+009 
64900 6.33511E+009 
64950 6.2779E+009 
65000 6.22121E+009 
65050 6.16504E+009 
65100 6.10936E+009 
65150 6.05419E+009 
65200 5.99951E+009 
65250 5.94533E+009 
65300 5.89163E+009 
65350 5.83841E+009 
65400 5.78568E+009 
65450 5.73342E+009 
65500 5.68162E+009 
65550 5.6303E+009 
65600 5.57943E+009 
65650 5.52903E+009 
65700 5.47907E+009 
65750 5.42957E+009 
65800 5.38051E+009 
65850 5.3319E+009 
65900 5.28372E+009 
65950 5.23597E+009 
66000 5.18866E+009 
66050 5.14177E+009 
66100 5.0953E+009 
66150 5.04925E+009 
66200 5.00361E+009 
66250 4.95839E+009 
66300 4.91357E+009 
66350 4.86916E+009 
66400 4.82514E+009 
66450 4.78153E+009 
66500 4.7383E+009 
66550 4.69547E+009 
66600 4.65302E+009 
66650 4.61095E+009 
66700 4.56926E+009 
66750 4.52795E+009 
66800 4.487E+009 
66850 4.44643E+009 
66900 4.40622E+009 
66950 4.36638E+009 
67000 4.32689E+009 
67050 4.28776E+009 
67100 4.24898E+009 
67150 4.21055E+009 
67200 4.17247E+009 
67250 4.13473E+009 
67300 4.09733E+009 
67350 4.06027E+009 
67400 4.02354E+009 
67450 3.98715E+009 
67500 3.95108E+009 
67550 3.91533E+009 
67600 3.87991E+009 
67650 3.84481E+009 
67700 3.81002E+009 
67750 3.77555E+009 
67800 3.74138E+009 
67850 3.70753E+009 
67900 3.67398E+009 
67950 3.64073E+009 
68000 3.60779E+009 
68050 3.57514E+009 
68100 3.54278E+009 
68150 3.51072E+009 
68200 3.47894E+009 
68250 3.44746E+009 
68300 3.41625E+009 
68350 3.38533E+009 
68400 3.35468E+009 
68450 3.32432E+009 
68500 3.29422E+009 
68550 3.2644E+009 
68600 3.23485E+009 
68650 3.20556E+009 
68700 3.17654E+009 
68750 3.14778E+009 
68800 3.11928E+009 
68850 3.09103E+009 
68900 3.06304E+009 
68950 3.03531E+009 
69000 3.00782E+009 
69050 2.98058E+009 
69100 2.95359E+009 
69150 2.92684E+009 
69200 2.90033E+009 
69250 2.87406E+009 
69300 2.84803E+009 
69350 2.82224E+009 
69400 2.79667E+009 
69450 2.77134E+009 
69500 2.74623E+009 
69550 2.72136E+009 
69600 2.69671E+009 
69650 2.67227E+009 
69700 2.64806E+009 
69750 2.62407E+009 
69800 2.6003E+009 
69850 2.57674E+009 
69900 2.55339E+009 
69950 2.53025E+009 
70000 2.50733E+009 
70050 2.48461E+009 
70100 2.46209E+009 
70150 2.43978E+009 
70200 2.41767E+009 
70250 2.39576E+009 
70300 2.37404E+009 
70350 2.35253E+009 
70400 2.33121E+009 
70450 2.31007E+009 
70500 2.28914E+009 
70550 2.26839E+009 
70600 2.24782E+009 
70650 2.22745E+009 
70700 2.20726E+009 
70750 2.18725E+009 
70800 2.16742E+009 
70850 2.14776E+009 
70900 2.12829E+009 
70950 2.109E+009 
71000 2.08987E+009 
71050 2.07093E+009 
71100 2.05215E+009 
71150 2.03354E+009 
71200 2.0151E+009 
71250 1.99682E+009 
71300 1.97872E+009 
71350 1.96077E+009 
71400 1.94299E+009 
71450 1.92537E+009 
71500 1.90791E+009 
71550 1.8906E+009 
71600 1.87345E+009 
71650 1.85646E+009 
71700 1.83962E+009 
71750 1.82293E+009 
71800 1.8064E+009 
71850 1.79001E+009 
71900 1.77377E+009 
71950 1.75768E+009 
72000 1.74173E+009 
72050 1.72593E+009 
72100 1.71027E+009 
72150 1.69475E+009 
72200 1.67938E+009 
72250 1.66414E+009 
72300 1.64904E+009 
72350 1.63408E+009 
72400 1.61925E+009 
72450 1.60455E+009 
72500 1.58999E+009 
72550 1.57556E+009 
72600 1.56126E+009 
72650 1.54709E+009 
72700 1.53305E+009 
72750 1.51914E+009 
72800 1.50535E+009 
72850 1.49169E+009 
72900 1.47815E+009 
72950 1.46473E+009 
73000 1.45143E+009 
73050 1.43826E+009 
73100 1.4252E+009 
73150 1.41226E+009 
73200 1.39944E+009 
73250 1.38673E+009 
73300 1.37415E+009 
73350 1.36167E+009 
73400 1.34931E+009 
73450 1.33705E+009 
73500 1.32491E+009 
73550 1.31288E+009 
73600 1.30096E+009 
73650 1.28915E+009 
73700 1.27744E+009 
73750 1.26584E+009 
73800 1.25434E+009 
73850 1.24295E+009 
73900 1.23167E+009 
73950 1.22048E+009 
74000 1.20939E+009 
74050 1.19841E+009 
74100 1.18752E+009 
74150 1.17674E+009 
74200 1.16605E+009 
74250 1.15546E+009 
74300 1.14496E+009 
74350 1.13456E+009 
74400 1.12425E+009 
74450 1.11404E+009 
74500 1.10392E+009 
74550 1.09389E+009 
74600 1.08395E+009 
74650 1.0741E+009 
74700 1.06434E+009 
74750 1.05467E+009 
74800 1.04509E+009 
74850 1.03559E+009 
74900 1.02618E+009 
74950 1.01686E+009 
75000 1.00762E+009 
75050 9.98462E+008 
75100 9.89388E+008 
75150 9.80397E+008 
75200 9.71487E+008 
75250 9.62658E+008 
75300 9.53908E+008 
75350 9.45239E+008 
75400 9.36647E+008 
75450 9.28134E+008 
75500 9.19697E+008 
75550 9.11338E+008 
75600 9.03054E+008 
75650 8.94845E+008 
75700 8.8671E+008 
75750 8.78649E+008 
75800 8.70662E+008 
75850 8.62746E+008 
75900 8.54903E+008 
75950 8.4713E+008 
76000 8.39429E+008 
76050 8.31796E+008 
76100 8.24234E+008 
76150 8.16739E+008 
76200 8.09313E+008 
76250 8.01954E+008 
76300 7.94662E+008 
76350 7.87436E+008 
76400 7.80275E+008 
76450 7.73179E+008 
76500 7.66148E+008 
76550 7.5918E+008 
76600 7.52276E+008 
76650 7.45434E+008 
76700 7.38655E+008 
76750 7.31937E+008 
76800 7.25279E+008 
76850 7.18682E+008 
76900 7.12145E+008 
76950 7.05668E+008 
77000 6.99249E+008 
77050 6.92888E+008 
77100 6.86585E+008 
77150 6.8034E+008 
77200 6.7415E+008 
77250 6.68017E+008 
77300 6.6194E+008 
77350 6.55918E+008 
77400 6.49951E+008 
77450 6.44037E+008 
77500 6.38177E+008 
77550 6.32371E+008 
77600 6.26617E+008 
77650 6.20916E+008 
77700 6.15266E+008 
77750 6.09667E+008 
77800 6.04119E+008 
77850 5.98622E+008 
77900 5.93175E+008 
77950 5.87777E+008 
78000 5.82428E+008 
78050 5.77127E+008 
78100 5.71875E+008 
78150 5.6667E+008 
78200 5.61513E+008 
78250 5.56402E+008 
78300 5.51338E+008 
78350 5.46319E+008 
78400 5.41347E+008 
78450 5.36419E+008 
78500 5.31537E+008 
78550 5.26698E+008 
78600 5.21904E+008 
78650 5.17153E+008 
78700 5.12445E+008 
78750 5.0778E+008 
78800 5.03157E+008 
78850 4.98576E+008 
78900 4.94037E+008 
78950 4.89539E+008 
79000 4.85082E+008 
79050 4.80666E+008 
79100 4.76289E+008 
79150 4.71953E+008 
79200 4.67655E+008 
79250 4.63397E+008 
79300 4.59177E+008 
79350 4.54996E+008 
79400 4.50853E+008 
79450 4.46747E+008 
79500 4.42679E+008 
79550 4.38648E+008 
79600 4.34653E+008 
79650 4.30694E+008 
79700 4.26772E+008 
79750 4.22885E+008 
79800 4.19034E+008 
79850 4.15217E+008 
79900 4.11435E+008 
79950 4.07688E+008 
80000 4.03974E+008 
80050 4.00295E+008 
80100 3.96648E+008 
80150 3.93035E+008 
80200 3.89455E+008 
80250 3.85907E+008 
80300 3.82392E+008 
80350 3.78908E+008 
80400 3.75456E+008 
80450 3.72036E+008 
80500 3.68646E+008 
80550 3.65288E+008 
80600 3.6196E+008 
80650 3.58662E+008 
80700 3.55394E+008 
80750 3.52156E+008 
80800 3.48947E+008 
80850 3.45768E+008 
80900 3.42617E+008 
80950 3.39495E+008 
81000 3.36402E+008 
81050 3.33336E+008 
81100 3.30299E+008 
81150 3.27289E+008 
81200 3.24306E+008 
81250 3.2135E+008 
81300 3.18422E+008 
81350 3.1552E+008 
81400 3.12644E+008 
81450 3.09795E+008 
81500 3.06971E+008 
81550 3.04174E+008 
81600 3.01401E+008 
81650 2.98654E+008 
81700 2.95932E+008 
81750 2.93234E+008 
81800 2.90561E+008 
81850 2.87913E+008 
81900 2.85288E+008 
81950 2.82688E+008 
82000 2.80111E+008 
82050 2.77557E+008 
82100 2.75027E+008 
82150 2.7252E+008 
82200 2.70035E+008 
82250 2.67573E+008 
82300 2.65134E+008 
82350 2.62716E+008 
82400 2.60321E+008 
82450 2.57948E+008 
82500 2.55596E+008 
82550 2.53265E+008 
82600 2.50956E+008 
82650 2.48668E+008 
82700 2.464E+008 
82750 2.44153E+008 
82800 2.41927E+008 
82850 2.39721E+008 
82900 2.37535E+008 
82950 2.35369E+008 
83000 2.33222E+008 
83050 2.31095E+008 
83100 2.28988E+008 
83150 2.26899E+008 
83200 2.2483E+008 
83250 2.22779E+008 
83300 2.20748E+008 
83350 2.18734E+008 
83400 2.16739E+008 
83450 2.14762E+008 
83500 2.12803E+008 
83550 2.10862E+008 
83600 2.08939E+008 
83650 2.07033E+008 
83700 2.05144E+008 
83750 2.03273E+008 
83800 2.01419E+008 
83850 1.99581E+008 
83900 1.97761E+008 
83950 1.95956E+008 
84000 1.94169E+008 
84050 1.92397E+008 
84100 1.90642E+008 
84150 1.88903E+008 
84200 1.87179E+008 
84250 1.85472E+008 
84300 1.83779E+008 
84350 1.82102E+008 
84400 1.80441E+008 
84450 1.78795E+008 
84500 1.77163E+008 
84550 1.75547E+008 
84600 1.73945E+008 
84650 1.72358E+008 
84700 1.70785E+008 
84750 1.69226E+008 
84800 1.67682E+008 
84850 1.66152E+008 
84900 1.64635E+008 
84950 1.63133E+008 
85000 1.61644E+008 
85050 1.60169E+008 
85100 1.58707E+008 
85150 1.57259E+008 
85200 1.55823E+008 
85250 1.54401E+008 
85300 1.52992E+008 
85350 1.51596E+008 
85400 1.50212E+008 
85450 1.48841E+008 
85500 1.47482E+008 
85550 1.46136E+008 
85600 1.44802E+008 
85650 1.4348E+008 
85700 1.4217E+008 
85750 1.40873E+008 
85800 1.39587E+008 
85850 1.38312E+008 
85900 1.3705E+008 
85950 1.35798E+008 
86000 1.34559E+008 
86050 1.3333E+008 
86100 1.32113E+008 
86150 1.30907E+008 
86200 1.29712E+008 
86250 1.28527E+008 
86300 1.27354E+008 
86350 1.26191E+008 
86400 1.25039E+008 
86450 1.23897E+008 
86500 1.22766E+008 
86550 1.21645E+008 
86600 1.20534E+008 
86650 1.19433E+008 
86700 1.18343E+008 
86750 1.17262E+008 
86800 1.16191E+008 
86850 1.1513E+008 
86900 1.14079E+008 
86950 1.13037E+008 
87000 1.12005E+008 
87050 1.10982E+008 
87100 1.09968E+008 
87150 1.08964E+008 
87200 1.07969E+008 
87250 1.06983E+008 
87300 1.06006E+008 
87350 1.05037E+008 
87400 1.04078E+008 
87450 1.03127E+008 
87500 1.02185E+008 
87550 1.01252E+008 
87600 1.00327E+008 
87650 9.94108E+007 
87700 9.85028E+007 
87750 9.7603E+007 
87800 9.67114E+007 
87850 9.58279E+007 
87900 9.49525E+007 
87950 9.40851E+007 
88000 9.32256E+007 
88050 9.23739E+007 
88100 9.153E+007 
88150 9.06938E+007 
88200 8.98653E+007 
88250 8.90442E+007 
88300 8.82307E+007 
88350 8.74246E+007 
88400 8.66258E+007 
88450 8.58344E+007 
88500 8.50501E+007 
88550 8.4273E+007 
88600 8.3503E+007 
88650 8.274E+007 
88700 8.1984E+007 
88750 8.12348E+007 
88800 8.04925E+007 
88850 7.9757E+007 
88900 7.90282E+007 
88950 7.8306E+007 
89000 7.75904E+007 
89050 7.68814E+007 
89100 7.61788E+007 
89150 7.54826E+007 
89200 7.47928E+007 
89250 7.41093E+007 
89300 7.3432E+007 
89350 7.27609E+007 
89400 7.20959E+007 
89450 7.1437E+007 
89500 7.07841E+007 
89550 7.01371E+007 
89600 6.94961E+007 
89650 6.88609E+007 
89700 6.82315E+007 
89750 6.76078E+007 
89800 6.69898E+007 
89850 6.63775E+007 
89900 6.57708E+007 
89950 6.51696E+007 
90000 6.45738E+007 
90050 6.39836E+007 
90100 6.33987E+007 
90150 6.28191E+007 
90200 6.22448E+007 
90250 6.16758E+007 
90300 6.1112E+007 
90350 6.05533E+007 
90400 5.99997E+007 
90450 5.94512E+007 
90500 5.89077E+007 
90550 5.83691E+007 
90600 5.78355E+007 
90650 5.73067E+007 
90700 5.67827E+007 
90750 5.62636E+007 
90800 5.57491E+007 
90850 5.52394E+007 
90900 5.47343E+007 
90950 5.42339E+007 
91000 5.3738E+007 
91050 5.32466E+007 
91100 5.27597E+007 
91150 5.22773E+007 
91200 5.17992E+007 
91250 5.13256E+007 
91300 5.08562E+007 
91350 5.03912E+007 
91400 4.99304E+007 
91450 4.94738E+007 
91500 4.90213E+007 
91550 4.8573E+007 
91600 4.81288E+007 
91650 4.76886E+007 
91700 4.72525E+007 
91750 4.68204E+007 
91800 4.63921E+007 
91850 4.59679E+007 
91900 4.55474E+007 
91950 4.51308E+007 
92000 4.47181E+007 
92050 4.43091E+007 
92100 4.39038E+007 
92150 4.35022E+007 
92200 4.31043E+007 
92250 4.271E+007 
92300 4.23194E+007 
92350 4.19323E+007 
92400 4.15487E+007 
92450 4.11686E+007 
92500 4.07921E+007 
92550 4.04189E+007 
92600 4.00492E+007 
92650 3.96828E+007 
92700 3.93198E+007 
92750 3.89601E+007 
92800 3.86037E+007 
92850 3.82505E+007 
92900 3.79006E+007 
92950 3.75538E+007 
93000 3.72103E+007 
93050 3.68698E+007 
93100 3.65325E+007 
93150 3.61983E+007 
93200 3.58671E+007 
93250 3.55389E+007 
93300 3.52138E+007 
93350 3.48916E+007 
93400 3.45723E+007 
93450 3.4256E+007 
93500 3.39425E+007 
93550 3.3632E+007 
93600 3.33242E+007 
93650 3.30193E+007 
93700 3.27172E+007 
93750 3.24178E+007 
93800 3.21211E+007 
93850 3.18272E+007 
93900 3.1536E+007 
93950 3.12474E+007 
94000 3.09614E+007 
94050 3.06781E+007 
94100 3.03973E+007 
94150 3.01192E+007 
94200 2.98435E+007 
94250 2.95704E+007 
94300 2.92998E+007 
94350 2.90316E+007 
94400 2.87659E+007 
94450 2.85027E+007 
94500 2.82418E+007 
94550 2.79833E+007 
94600 2.77272E+007 
94650 2.74734E+007 
94700 2.7222E+007 
94750 2.69728E+007 
94800 2.67259E+007 
94850 2.64813E+007 
94900 2.62389E+007 
94950 2.59987E+007 
95000 2.57607E+007 
95050 2.55249E+007 
95100 2.52913E+007 
95150 2.50598E+007 
95200 2.48304E+007 
95250 2.46031E+007 
95300 2.43779E+007 
95350 2.41547E+007 
95400 2.39336E+007 
95450 2.37145E+007 
95500 2.34974E+007 
95550 2.32823E+007 
95600 2.30691E+007 
95650 2.28579E+007 
95700 2.26487E+007 
95750 2.24413E+007 
95800 2.22359E+007 
95850 2.20323E+007 
95900 2.18306E+007 
95950 2.16307E+007 
96000 2.14327E+007 
96050 2.12364E+007 
96100 2.1042E+007 
96150 2.08493E+007 
96200 2.06584E+007 
96250 2.04693E+007 
96300 2.02818E+007 
96350 2.00961E+007 
96400 1.99121E+007 
96450 1.97298E+007 
96500 1.95491E+007 
96550 1.93701E+007 
96600 1.91928E+007 
96650 1.9017E+007 
96700 1.88429E+007 
96750 1.86703E+007 
96800 1.84993E+007 
96850 1.83299E+007 
96900 1.81621E+007 
96950 1.79957E+007 
97000 1.78309E+007 
97050 1.76676E+007 
97100 1.75058E+007 
97150 1.73455E+007 
97200 1.71867E+007 
97250 1.70293E+007 
97300 1.68733E+007 
97350 1.67188E+007 
97400 1.65656E+007 
97450 1.64139E+007 
97500 1.62636E+007 
97550 1.61146E+007 
97600 1.5967E+007 
97650 1.58208E+007 
97700 1.56759E+007 
97750 1.55323E+007 
97800 1.539E+007 
97850 1.52491E+007 
97900 1.51094E+007 
97950 1.4971E+007 
98000 1.48338E+007 
98050 1.4698E+007 
98100 1.45633E+007 
98150 1.44299E+007 
98200 1.42977E+007 
98250 1.41668E+007 
98300 1.4037E+007 
98350 1.39084E+007 
98400 1.3781E+007 
98450 1.36547E+007 
98500 1.35297E+007 
98550 1.34057E+007 
98600 1.32829E+007 
98650 1.31612E+007 
98700 1.30406E+007 
98750 1.29212E+007 
98800 1.28028E+007 
98850 1.26855E+007 
98900 1.25693E+007 
98950 1.24541E+007 
99000 1.234E+007 
99050 1.22269E+007 
99100 1.21149E+007 
99150 1.20039E+007 
99200 1.18939E+007 
99250 1.17849E+007 
99300 1.1677E+007 
99350 1.157E+007 
99400 1.1464E+007 
99450 1.13589E+007 
99500 1.12548E+007 
99550 1.11517E+007 
99600 1.10495E+007 
99650 1.09483E+007 
99700 1.08479E+007 
99750 1.07485E+007 
99800 1.065E+007 
99850 1.05525E+007 
99900 1.04558E+007 
99950 1.03599E+007 
100000 1.0265E+007 
