#F U:\Beamline I20\I20-1_EDE\Wigglers\xop\83mm-small-wiggler\EDE line ranges\0p9T-300mA-0p12x1p4mrad.dat
#C I20EDE 0.9T 300mA 0.12x1.4mrad
#S 1 File written by xplot on Tue Sep 10 16:36:39 2013
#N 2
#L    Energy [eV]  Flux [ph/s/0.1%bw]
50 1.21213E+013 
100 1.9209E+013 
150 2.51068E+013 
200 3.03198E+013 
250 3.5058E+013 
300 3.94344E+013 
350 4.35189E+013 
400 4.73589E+013 
450 5.0988E+013 
500 5.44317E+013 
550 5.77095E+013 
600 6.08373E+013 
650 6.38279E+013 
700 6.66919E+013 
750 6.94383E+013 
800 7.20749E+013 
850 7.46084E+013 
900 7.70448E+013 
950 7.93891E+013 
1000 8.16461E+013 
1050 8.382E+013 
1100 8.59144E+013 
1150 8.7933E+013 
1200 8.98789E+013 
1250 9.17548E+013 
1300 9.35637E+013 
1350 9.53078E+013 
1400 9.69896E+013 
1450 9.86112E+013 
1500 1.00175E+014 
1550 1.01682E+014 
1600 1.03135E+014 
1650 1.04535E+014 
1700 1.05884E+014 
1750 1.07183E+014 
1800 1.08434E+014 
1850 1.09639E+014 
1900 1.10798E+014 
1950 1.11913E+014 
2000 1.12985E+014 
2050 1.14015E+014 
2100 1.15005E+014 
2150 1.15955E+014 
2200 1.16867E+014 
2250 1.17741E+014 
2300 1.18578E+014 
2350 1.1938E+014 
2400 1.20148E+014 
2450 1.20881E+014 
2500 1.21581E+014 
2550 1.22249E+014 
2600 1.22886E+014 
2650 1.23492E+014 
2700 1.24068E+014 
2750 1.24615E+014 
2800 1.25134E+014 
2850 1.25625E+014 
2900 1.26088E+014 
2950 1.26526E+014 
3000 1.26937E+014 
3050 1.27323E+014 
3100 1.27684E+014 
3150 1.28021E+014 
3200 1.28335E+014 
3250 1.28626E+014 
3300 1.28895E+014 
3350 1.29141E+014 
3400 1.29367E+014 
3450 1.29571E+014 
3500 1.29755E+014 
3550 1.29919E+014 
3600 1.30063E+014 
3650 1.30189E+014 
3700 1.30296E+014 
3750 1.30385E+014 
3800 1.30457E+014 
3850 1.30511E+014 
3900 1.30548E+014 
3950 1.30569E+014 
4000 1.30573E+014 
4050 1.30563E+014 
4100 1.30536E+014 
4150 1.30495E+014 
4200 1.30439E+014 
4250 1.30369E+014 
4300 1.30285E+014 
4350 1.30188E+014 
4400 1.30077E+014 
4450 1.29954E+014 
4500 1.29818E+014 
4550 1.29669E+014 
4600 1.29509E+014 
4650 1.29337E+014 
4700 1.29153E+014 
4750 1.28959E+014 
4800 1.28753E+014 
4850 1.28538E+014 
4900 1.28312E+014 
4950 1.28075E+014 
5000 1.27829E+014 
5050 1.27574E+014 
5100 1.27309E+014 
5150 1.27036E+014 
5200 1.26753E+014 
5250 1.26462E+014 
5300 1.26163E+014 
5350 1.25855E+014 
5400 1.2554E+014 
5450 1.25217E+014 
5500 1.24887E+014 
5550 1.24549E+014 
5600 1.24204E+014 
5650 1.23853E+014 
5700 1.23495E+014 
5750 1.2313E+014 
5800 1.2276E+014 
5850 1.22383E+014 
5900 1.22E+014 
5950 1.21611E+014 
6000 1.21217E+014 
6050 1.20818E+014 
6100 1.20413E+014 
6150 1.20004E+014 
6200 1.19589E+014 
6250 1.1917E+014 
6300 1.18746E+014 
6350 1.18318E+014 
6400 1.17885E+014 
6450 1.17449E+014 
6500 1.17008E+014 
6550 1.16564E+014 
6600 1.16115E+014 
6650 1.15664E+014 
6700 1.15208E+014 
6750 1.1475E+014 
6800 1.14288E+014 
6850 1.13824E+014 
6900 1.13356E+014 
6950 1.12885E+014 
7000 1.12412E+014 
7050 1.11937E+014 
7100 1.11458E+014 
7150 1.10978E+014 
7200 1.10495E+014 
7250 1.1001E+014 
7300 1.09523E+014 
7350 1.09034E+014 
7400 1.08543E+014 
7450 1.0805E+014 
7500 1.07556E+014 
7550 1.0706E+014 
7600 1.06563E+014 
7650 1.06064E+014 
7700 1.05564E+014 
7750 1.05063E+014 
7800 1.0456E+014 
7850 1.04057E+014 
7900 1.03553E+014 
7950 1.03047E+014 
8000 1.02541E+014 
8050 1.02034E+014 
8100 1.01527E+014 
8150 1.01019E+014 
8200 1.0051E+014 
8250 1.00002E+014 
8300 9.94922E+013 
8350 9.89825E+013 
8400 9.84726E+013 
8450 9.79626E+013 
8500 9.74524E+013 
8550 9.69421E+013 
8600 9.64319E+013 
8650 9.59217E+013 
8700 9.54116E+013 
8750 9.49017E+013 
8800 9.4392E+013 
8850 9.38826E+013 
8900 9.33735E+013 
8950 9.28649E+013 
9000 9.23566E+013 
9050 9.18488E+013 
9100 9.13416E+013 
9150 9.0835E+013 
9200 9.03289E+013 
9250 8.98235E+013 
9300 8.93189E+013 
9350 8.88149E+013 
9400 8.83118E+013 
9450 8.78095E+013 
9500 8.73081E+013 
9550 8.68076E+013 
9600 8.6308E+013 
9650 8.58094E+013 
9700 8.53118E+013 
9750 8.48153E+013 
9800 8.43198E+013 
9850 8.38255E+013 
9900 8.33323E+013 
9950 8.28404E+013 
10000 8.23496E+013 
10050 8.186E+013 
10100 8.13718E+013 
10150 8.08848E+013 
10200 8.03992E+013 
10250 7.99148E+013 
10300 7.94319E+013 
10350 7.89504E+013 
10400 7.84703E+013 
10450 7.79917E+013 
10500 7.75145E+013 
10550 7.70388E+013 
10600 7.65647E+013 
10650 7.6092E+013 
10700 7.5621E+013 
10750 7.51515E+013 
10800 7.46836E+013 
10850 7.42173E+013 
10900 7.37527E+013 
10950 7.32897E+013 
11000 7.28283E+013 
11050 7.23687E+013 
11100 7.19107E+013 
11150 7.14545E+013 
11200 7.1E+013 
11250 7.05472E+013 
11300 7.00962E+013 
11350 6.9647E+013 
11400 6.91995E+013 
11450 6.87539E+013 
11500 6.831E+013 
11550 6.7868E+013 
11600 6.74278E+013 
11650 6.69894E+013 
11700 6.65529E+013 
11750 6.61182E+013 
11800 6.56854E+013 
11850 6.52545E+013 
11900 6.48255E+013 
11950 6.43983E+013 
12000 6.39731E+013 
12050 6.35497E+013 
12100 6.31283E+013 
12150 6.27088E+013 
12200 6.22912E+013 
12250 6.18756E+013 
12300 6.14619E+013 
12350 6.10501E+013 
12400 6.06403E+013 
12450 6.02324E+013 
12500 5.98265E+013 
12550 5.94225E+013 
12600 5.90205E+013 
12650 5.86205E+013 
12700 5.82224E+013 
12750 5.78263E+013 
12800 5.74322E+013 
12850 5.70401E+013 
12900 5.66499E+013 
12950 5.62617E+013 
13000 5.58755E+013 
13050 5.54913E+013 
13100 5.5109E+013 
13150 5.47288E+013 
13200 5.43505E+013 
13250 5.39742E+013 
13300 5.35998E+013 
13350 5.32275E+013 
13400 5.28571E+013 
13450 5.24888E+013 
13500 5.21224E+013 
13550 5.17579E+013 
13600 5.13955E+013 
13650 5.1035E+013 
13700 5.06765E+013 
13750 5.032E+013 
13800 4.99654E+013 
13850 4.96128E+013 
13900 4.92622E+013 
13950 4.89135E+013 
14000 4.85668E+013 
14050 4.82221E+013 
14100 4.78793E+013 
14150 4.75385E+013 
14200 4.71996E+013 
14250 4.68626E+013 
14300 4.65276E+013 
14350 4.61945E+013 
14400 4.58633E+013 
14450 4.55341E+013 
14500 4.52068E+013 
14550 4.48814E+013 
14600 4.45579E+013 
14650 4.42363E+013 
14700 4.39167E+013 
14750 4.35989E+013 
14800 4.3283E+013 
14850 4.29691E+013 
14900 4.2657E+013 
14950 4.23467E+013 
15000 4.20384E+013 
15050 4.17319E+013 
15100 4.14273E+013 
15150 4.11245E+013 
15200 4.08236E+013 
15250 4.05246E+013 
15300 4.02273E+013 
15350 3.9932E+013 
15400 3.96384E+013 
15450 3.93466E+013 
15500 3.90567E+013 
15550 3.87686E+013 
15600 3.84823E+013 
15650 3.81977E+013 
15700 3.7915E+013 
15750 3.76341E+013 
15800 3.73549E+013 
15850 3.70775E+013 
15900 3.68018E+013 
15950 3.6528E+013 
16000 3.62558E+013 
16050 3.59854E+013 
16100 3.57168E+013 
16150 3.54498E+013 
16200 3.51846E+013 
16250 3.49211E+013 
16300 3.46593E+013 
16350 3.43993E+013 
16400 3.41409E+013 
16450 3.38842E+013 
16500 3.36291E+013 
16550 3.33758E+013 
16600 3.31241E+013 
16650 3.2874E+013 
16700 3.26256E+013 
16750 3.23789E+013 
16800 3.21338E+013 
16850 3.18903E+013 
16900 3.16484E+013 
16950 3.14082E+013 
17000 3.11695E+013 
17050 3.09325E+013 
17100 3.0697E+013 
17150 3.04631E+013 
17200 3.02308E+013 
17250 3.00001E+013 
17300 2.97709E+013 
17350 2.95433E+013 
17400 2.93172E+013 
17450 2.90927E+013 
17500 2.88696E+013 
17550 2.86481E+013 
17600 2.84281E+013 
17650 2.82097E+013 
17700 2.79927E+013 
17750 2.77772E+013 
17800 2.75632E+013 
17850 2.73507E+013 
17900 2.71396E+013 
17950 2.693E+013 
18000 2.67218E+013 
18050 2.65151E+013 
18100 2.63099E+013 
18150 2.6106E+013 
18200 2.59036E+013 
18250 2.57026E+013 
18300 2.5503E+013 
18350 2.53048E+013 
18400 2.5108E+013 
18450 2.49126E+013 
18500 2.47185E+013 
18550 2.45258E+013 
18600 2.43345E+013 
18650 2.41445E+013 
18700 2.39559E+013 
18750 2.37686E+013 
18800 2.35826E+013 
18850 2.3398E+013 
18900 2.32147E+013 
18950 2.30327E+013 
19000 2.28519E+013 
19050 2.26725E+013 
19100 2.24944E+013 
19150 2.23175E+013 
19200 2.21419E+013 
19250 2.19676E+013 
19300 2.17945E+013 
19350 2.16227E+013 
19400 2.14521E+013 
19450 2.12828E+013 
19500 2.11146E+013 
19550 2.09477E+013 
19600 2.0782E+013 
19650 2.06175E+013 
19700 2.04542E+013 
19750 2.02921E+013 
19800 2.01312E+013 
19850 1.99714E+013 
19900 1.98129E+013 
19950 1.96555E+013 
20000 1.94992E+013 
20050 1.93441E+013 
20100 1.91901E+013 
20150 1.90372E+013 
20200 1.88855E+013 
20250 1.87349E+013 
20300 1.85854E+013 
20350 1.8437E+013 
20400 1.82897E+013 
20450 1.81435E+013 
20500 1.79984E+013 
20550 1.78543E+013 
20600 1.77114E+013 
20650 1.75694E+013 
20700 1.74286E+013 
20750 1.72888E+013 
20800 1.715E+013 
20850 1.70123E+013 
20900 1.68756E+013 
20950 1.67399E+013 
21000 1.66053E+013 
21050 1.64716E+013 
21100 1.6339E+013 
21150 1.62073E+013 
21200 1.60766E+013 
21250 1.5947E+013 
21300 1.58183E+013 
21350 1.56905E+013 
21400 1.55638E+013 
21450 1.5438E+013 
21500 1.53131E+013 
21550 1.51892E+013 
21600 1.50662E+013 
21650 1.49442E+013 
21700 1.48231E+013 
21750 1.47029E+013 
21800 1.45836E+013 
21850 1.44652E+013 
21900 1.43478E+013 
21950 1.42312E+013 
22000 1.41155E+013 
22050 1.40007E+013 
22100 1.38868E+013 
22150 1.37737E+013 
22200 1.36616E+013 
22250 1.35502E+013 
22300 1.34398E+013 
22350 1.33301E+013 
22400 1.32214E+013 
22450 1.31134E+013 
22500 1.30063E+013 
22550 1.29E+013 
22600 1.27946E+013 
22650 1.26899E+013 
22700 1.25861E+013 
22750 1.2483E+013 
22800 1.23808E+013 
22850 1.22793E+013 
22900 1.21787E+013 
22950 1.20788E+013 
23000 1.19797E+013 
23050 1.18813E+013 
23100 1.17837E+013 
23150 1.16869E+013 
23200 1.15908E+013 
23250 1.14955E+013 
23300 1.14009E+013 
23350 1.13071E+013 
23400 1.1214E+013 
23450 1.11216E+013 
23500 1.103E+013 
23550 1.0939E+013 
23600 1.08488E+013 
23650 1.07593E+013 
23700 1.06705E+013 
23750 1.05823E+013 
23800 1.04949E+013 
23850 1.04082E+013 
23900 1.03221E+013 
23950 1.02367E+013 
24000 1.0152E+013 
24050 1.0068E+013 
24100 9.9846E+012 
24150 9.90188E+012 
24200 9.81981E+012 
24250 9.73839E+012 
24300 9.65761E+012 
24350 9.57747E+012 
24400 9.49796E+012 
24450 9.41909E+012 
24500 9.34084E+012 
24550 9.26321E+012 
24600 9.18619E+012 
24650 9.10979E+012 
24700 9.03399E+012 
24750 8.9588E+012 
24800 8.88421E+012 
24850 8.8102E+012 
24900 8.73679E+012 
24950 8.66397E+012 
25000 8.59172E+012 
25050 8.52005E+012 
25100 8.44895E+012 
25150 8.37842E+012 
25200 8.30845E+012 
25250 8.23905E+012 
25300 8.1702E+012 
25350 8.1019E+012 
25400 8.03414E+012 
25450 7.96693E+012 
25500 7.90026E+012 
25550 7.83413E+012 
25600 7.76852E+012 
25650 7.70344E+012 
25700 7.63889E+012 
25750 7.57485E+012 
25800 7.51134E+012 
25850 7.44833E+012 
25900 7.38583E+012 
25950 7.32383E+012 
26000 7.26233E+012 
26050 7.20133E+012 
26100 7.14082E+012 
26150 7.0808E+012 
26200 7.02127E+012 
26250 6.96222E+012 
26300 6.90364E+012 
26350 6.84554E+012 
26400 6.78791E+012 
26450 6.73074E+012 
26500 6.67405E+012 
26550 6.6178E+012 
26600 6.56202E+012 
26650 6.50669E+012 
26700 6.45181E+012 
26750 6.39737E+012 
26800 6.34338E+012 
26850 6.28983E+012 
26900 6.23671E+012 
26950 6.18403E+012 
27000 6.13177E+012 
27050 6.07994E+012 
27100 6.02853E+012 
27150 5.97754E+012 
27200 5.92697E+012 
27250 5.87681E+012 
27300 5.82707E+012 
27350 5.77772E+012 
27400 5.72879E+012 
27450 5.68025E+012 
27500 5.63211E+012 
27550 5.58436E+012 
27600 5.53701E+012 
27650 5.49004E+012 
27700 5.44346E+012 
27750 5.39726E+012 
27800 5.35144E+012 
27850 5.30599E+012 
27900 5.26092E+012 
27950 5.21622E+012 
28000 5.17189E+012 
28050 5.12792E+012 
28100 5.08431E+012 
28150 5.04106E+012 
28200 4.99817E+012 
28250 4.95564E+012 
28300 4.91345E+012 
28350 4.87161E+012 
28400 4.83011E+012 
28450 4.78896E+012 
28500 4.74815E+012 
28550 4.70767E+012 
28600 4.66754E+012 
28650 4.62773E+012 
28700 4.58825E+012 
28750 4.54909E+012 
28800 4.51027E+012 
28850 4.47176E+012 
28900 4.43357E+012 
28950 4.3957E+012 
29000 4.35814E+012 
29050 4.32089E+012 
29100 4.28396E+012 
29150 4.24733E+012 
29200 4.211E+012 
29250 4.17498E+012 
29300 4.13925E+012 
29350 4.10382E+012 
29400 4.06869E+012 
29450 4.03385E+012 
29500 3.9993E+012 
29550 3.96503E+012 
29600 3.93105E+012 
29650 3.89736E+012 
29700 3.86394E+012 
29750 3.83081E+012 
29800 3.79795E+012 
29850 3.76536E+012 
29900 3.73305E+012 
29950 3.70101E+012 
30000 3.66923E+012 
30050 3.63772E+012 
30100 3.60647E+012 
30150 3.57549E+012 
30200 3.54476E+012 
30250 3.51429E+012 
30300 3.48407E+012 
30350 3.45411E+012 
30400 3.4244E+012 
30450 3.39494E+012 
30500 3.36572E+012 
30550 3.33675E+012 
30600 3.30803E+012 
30650 3.27954E+012 
30700 3.25129E+012 
30750 3.22328E+012 
30800 3.19551E+012 
30850 3.16797E+012 
30900 3.14066E+012 
30950 3.11358E+012 
31000 3.08673E+012 
31050 3.0601E+012 
31100 3.0337E+012 
31150 3.00752E+012 
31200 2.98156E+012 
31250 2.95582E+012 
31300 2.93029E+012 
31350 2.90498E+012 
31400 2.87989E+012 
31450 2.855E+012 
31500 2.83033E+012 
31550 2.80586E+012 
31600 2.7816E+012 
31650 2.75755E+012 
31700 2.7337E+012 
31750 2.71005E+012 
31800 2.6866E+012 
31850 2.66334E+012 
31900 2.64029E+012 
31950 2.61743E+012 
32000 2.59476E+012 
32050 2.57229E+012 
32100 2.55E+012 
32150 2.52791E+012 
32200 2.506E+012 
32250 2.48427E+012 
32300 2.46273E+012 
32350 2.44138E+012 
32400 2.4202E+012 
32450 2.39921E+012 
32500 2.37839E+012 
32550 2.35775E+012 
32600 2.33728E+012 
32650 2.31699E+012 
32700 2.29687E+012 
32750 2.27692E+012 
32800 2.25715E+012 
32850 2.23754E+012 
32900 2.21809E+012 
32950 2.19881E+012 
33000 2.1797E+012 
33050 2.16075E+012 
33100 2.14196E+012 
33150 2.12332E+012 
33200 2.10485E+012 
33250 2.08654E+012 
33300 2.06838E+012 
33350 2.05038E+012 
33400 2.03253E+012 
33450 2.01483E+012 
33500 1.99728E+012 
33550 1.97989E+012 
33600 1.96264E+012 
33650 1.94554E+012 
33700 1.92858E+012 
33750 1.91177E+012 
33800 1.89511E+012 
33850 1.87858E+012 
33900 1.8622E+012 
33950 1.84596E+012 
34000 1.82985E+012 
34050 1.81389E+012 
34100 1.79806E+012 
34150 1.78236E+012 
34200 1.7668E+012 
34250 1.75138E+012 
34300 1.73608E+012 
34350 1.72092E+012 
34400 1.70589E+012 
34450 1.69098E+012 
34500 1.67621E+012 
34550 1.66156E+012 
34600 1.64703E+012 
34650 1.63263E+012 
34700 1.61836E+012 
34750 1.6042E+012 
34800 1.59017E+012 
34850 1.57626E+012 
34900 1.56247E+012 
34950 1.54879E+012 
35000 1.53524E+012 
35050 1.5218E+012 
35100 1.50848E+012 
35150 1.49527E+012 
35200 1.48217E+012 
35250 1.46919E+012 
35300 1.45632E+012 
35350 1.44356E+012 
35400 1.43091E+012 
35450 1.41837E+012 
35500 1.40593E+012 
35550 1.39361E+012 
35600 1.38139E+012 
35650 1.36927E+012 
35700 1.35726E+012 
35750 1.34535E+012 
35800 1.33355E+012 
35850 1.32185E+012 
35900 1.31025E+012 
35950 1.29874E+012 
36000 1.28734E+012 
36050 1.27604E+012 
36100 1.26483E+012 
36150 1.25373E+012 
36200 1.24271E+012 
36250 1.23179E+012 
36300 1.22097E+012 
36350 1.21024E+012 
36400 1.1996E+012 
36450 1.18906E+012 
36500 1.1786E+012 
36550 1.16824E+012 
36600 1.15797E+012 
36650 1.14778E+012 
36700 1.13769E+012 
36750 1.12768E+012 
36800 1.11775E+012 
36850 1.10792E+012 
36900 1.09816E+012 
36950 1.0885E+012 
37000 1.07891E+012 
37050 1.06942E+012 
37100 1.06E+012 
37150 1.05066E+012 
37200 1.04141E+012 
37250 1.03223E+012 
37300 1.02314E+012 
37350 1.01412E+012 
37400 1.00518E+012 
37450 9.96321E+011 
37500 9.87538E+011 
37550 9.78831E+011 
37600 9.70199E+011 
37650 9.61643E+011 
37700 9.5316E+011 
37750 9.44752E+011 
37800 9.36417E+011 
37850 9.28154E+011 
37900 9.19963E+011 
37950 9.11843E+011 
38000 9.03794E+011 
38050 8.95815E+011 
38100 8.87905E+011 
38150 8.80064E+011 
38200 8.72292E+011 
38250 8.64587E+011 
38300 8.56949E+011 
38350 8.49378E+011 
38400 8.41873E+011 
38450 8.34433E+011 
38500 8.27058E+011 
38550 8.19747E+011 
38600 8.125E+011 
38650 8.05316E+011 
38700 7.98195E+011 
38750 7.91136E+011 
38800 7.84139E+011 
38850 7.77202E+011 
38900 7.70326E+011 
38950 7.6351E+011 
39000 7.56754E+011 
39050 7.50057E+011 
39100 7.43418E+011 
39150 7.36837E+011 
39200 7.30314E+011 
39250 7.23847E+011 
39300 7.17437E+011 
39350 7.11083E+011 
39400 7.04785E+011 
39450 6.98542E+011 
39500 6.92353E+011 
39550 6.86218E+011 
39600 6.80138E+011 
39650 6.7411E+011 
39700 6.68135E+011 
39750 6.62212E+011 
39800 6.56341E+011 
39850 6.50522E+011 
39900 6.44753E+011 
39950 6.39035E+011 
40000 6.33367E+011 
40050 6.27749E+011 
40100 6.2218E+011 
40150 6.1666E+011 
40200 6.11188E+011 
40250 6.05764E+011 
40300 6.00388E+011 
40350 5.95059E+011 
40400 5.89776E+011 
40450 5.8454E+011 
40500 5.7935E+011 
40550 5.74205E+011 
40600 5.69106E+011 
40650 5.64051E+011 
40700 5.5904E+011 
40750 5.54074E+011 
40800 5.49151E+011 
40850 5.44271E+011 
40900 5.39435E+011 
40950 5.3464E+011 
41000 5.29888E+011 
41050 5.25178E+011 
41100 5.20509E+011 
41150 5.15881E+011 
41200 5.11293E+011 
41250 5.06746E+011 
41300 5.02239E+011 
41350 4.97772E+011 
41400 4.93344E+011 
41450 4.88955E+011 
41500 4.84604E+011 
41550 4.80292E+011 
41600 4.76017E+011 
41650 4.71781E+011 
41700 4.67581E+011 
41750 4.63419E+011 
41800 4.59293E+011 
41850 4.55203E+011 
41900 4.5115E+011 
41950 4.47132E+011 
42000 4.4315E+011 
42050 4.39203E+011 
42100 4.3529E+011 
42150 4.31412E+011 
42200 4.27568E+011 
42250 4.23758E+011 
42300 4.19982E+011 
42350 4.16239E+011 
42400 4.12529E+011 
42450 4.08851E+011 
42500 4.05206E+011 
42550 4.01594E+011 
42600 3.98013E+011 
42650 3.94463E+011 
42700 3.90946E+011 
42750 3.87458E+011 
42800 3.84002E+011 
42850 3.80577E+011 
42900 3.77181E+011 
42950 3.73816E+011 
43000 3.7048E+011 
43050 3.67174E+011 
43100 3.63897E+011 
43150 3.60649E+011 
43200 3.5743E+011 
43250 3.54239E+011 
43300 3.51076E+011 
43350 3.47941E+011 
43400 3.44834E+011 
43450 3.41755E+011 
43500 3.38702E+011 
43550 3.35677E+011 
43600 3.32678E+011 
43650 3.29706E+011 
43700 3.26761E+011 
43750 3.23841E+011 
43800 3.20947E+011 
43850 3.18079E+011 
43900 3.15236E+011 
43950 3.12418E+011 
44000 3.09626E+011 
44050 3.06858E+011 
44100 3.04114E+011 
44150 3.01395E+011 
44200 2.987E+011 
44250 2.96029E+011 
44300 2.93381E+011 
44350 2.90757E+011 
44400 2.88156E+011 
44450 2.85578E+011 
44500 2.83023E+011 
44550 2.80491E+011 
44600 2.77981E+011 
44650 2.75493E+011 
44700 2.73028E+011 
44750 2.70584E+011 
44800 2.68162E+011 
44850 2.65761E+011 
44900 2.63382E+011 
44950 2.61024E+011 
45000 2.58687E+011 
45050 2.5637E+011 
45100 2.54074E+011 
45150 2.51799E+011 
45200 2.49544E+011 
45250 2.47308E+011 
45300 2.45093E+011 
45350 2.42897E+011 
45400 2.40721E+011 
45450 2.38564E+011 
45500 2.36426E+011 
45550 2.34307E+011 
45600 2.32207E+011 
45650 2.30126E+011 
45700 2.28063E+011 
45750 2.26018E+011 
45800 2.23992E+011 
45850 2.21984E+011 
45900 2.19993E+011 
45950 2.18021E+011 
46000 2.16066E+011 
46050 2.14128E+011 
46100 2.12207E+011 
46150 2.10304E+011 
46200 2.08417E+011 
46250 2.06547E+011 
46300 2.04694E+011 
46350 2.02857E+011 
46400 2.01037E+011 
46450 1.99233E+011 
46500 1.97445E+011 
46550 1.95673E+011 
46600 1.93916E+011 
46650 1.92176E+011 
46700 1.9045E+011 
46750 1.88741E+011 
46800 1.87046E+011 
46850 1.85366E+011 
46900 1.83702E+011 
46950 1.82052E+011 
47000 1.80417E+011 
47050 1.78796E+011 
47100 1.77191E+011 
47150 1.75599E+011 
47200 1.74021E+011 
47250 1.72458E+011 
47300 1.70908E+011 
47350 1.69372E+011 
47400 1.6785E+011 
47450 1.66342E+011 
47500 1.64847E+011 
47550 1.63365E+011 
47600 1.61897E+011 
47650 1.60441E+011 
47700 1.58999E+011 
47750 1.5757E+011 
47800 1.56153E+011 
47850 1.54749E+011 
47900 1.53357E+011 
47950 1.51978E+011 
48000 1.50611E+011 
48050 1.49257E+011 
48100 1.47914E+011 
48150 1.46584E+011 
48200 1.45265E+011 
48250 1.43958E+011 
48300 1.42663E+011 
48350 1.41379E+011 
48400 1.40107E+011 
48450 1.38846E+011 
48500 1.37597E+011 
48550 1.36358E+011 
48600 1.35131E+011 
48650 1.33914E+011 
48700 1.32709E+011 
48750 1.31514E+011 
48800 1.3033E+011 
48850 1.29157E+011 
48900 1.27994E+011 
48950 1.26841E+011 
49000 1.25699E+011 
49050 1.24567E+011 
49100 1.23445E+011 
49150 1.22333E+011 
49200 1.21231E+011 
49250 1.20139E+011 
49300 1.19057E+011 
49350 1.17984E+011 
49400 1.16921E+011 
49450 1.15868E+011 
49500 1.14824E+011 
49550 1.13789E+011 
49600 1.12763E+011 
49650 1.11747E+011 
49700 1.1074E+011 
49750 1.09742E+011 
49800 1.08752E+011 
49850 1.07772E+011 
49900 1.068E+011 
49950 1.05838E+011 
50000 1.04883E+011 
50050 1.03937E+011 
50100 1.03E+011 
50150 1.02071E+011 
50200 1.01151E+011 
50250 1.00239E+011 
50300 9.93345E+010 
50350 9.84384E+010 
50400 9.75505E+010 
50450 9.66704E+010 
50500 9.57983E+010 
50550 9.4934E+010 
50600 9.40774E+010 
50650 9.32285E+010 
50700 9.23872E+010 
50750 9.15535E+010 
50800 9.07272E+010 
50850 8.99084E+010 
50900 8.90969E+010 
50950 8.82927E+010 
51000 8.74956E+010 
51050 8.67058E+010 
51100 8.5923E+010 
51150 8.51473E+010 
51200 8.43785E+010 
51250 8.36166E+010 
51300 8.28615E+010 
51350 8.21133E+010 
51400 8.13717E+010 
51450 8.06368E+010 
51500 7.99085E+010 
51550 7.91867E+010 
51600 7.84714E+010 
51650 7.77626E+010 
51700 7.70601E+010 
51750 7.63639E+010 
51800 7.56739E+010 
51850 7.49902E+010 
51900 7.43126E+010 
51950 7.36411E+010 
52000 7.29756E+010 
52050 7.23161E+010 
52100 7.16625E+010 
52150 7.10148E+010 
52200 7.03729E+010 
52250 6.97368E+010 
52300 6.91064E+010 
52350 6.84817E+010 
52400 6.78626E+010 
52450 6.7249E+010 
52500 6.6641E+010 
52550 6.60384E+010 
52600 6.54413E+010 
52650 6.48495E+010 
52700 6.4263E+010 
52750 6.36819E+010 
52800 6.31059E+010 
52850 6.25351E+010 
52900 6.19695E+010 
52950 6.14089E+010 
53000 6.08534E+010 
53050 6.03029E+010 
53100 5.97573E+010 
53150 5.92167E+010 
53200 5.86809E+010 
53250 5.81499E+010 
53300 5.76237E+010 
53350 5.71023E+010 
53400 5.65855E+010 
53450 5.60734E+010 
53500 5.55659E+010 
53550 5.50629E+010 
53600 5.45645E+010 
53650 5.40706E+010 
53700 5.35812E+010 
53750 5.30961E+010 
53800 5.26154E+010 
53850 5.2139E+010 
53900 5.1667E+010 
53950 5.11991E+010 
54000 5.07355E+010 
54050 5.02761E+010 
54100 4.98208E+010 
54150 4.93696E+010 
54200 4.89225E+010 
54250 4.84794E+010 
54300 4.80403E+010 
54350 4.76051E+010 
54400 4.71739E+010 
54450 4.67466E+010 
54500 4.63231E+010 
54550 4.59034E+010 
54600 4.54875E+010 
54650 4.50754E+010 
54700 4.4667E+010 
54750 4.42622E+010 
54800 4.38611E+010 
54850 4.34637E+010 
54900 4.30698E+010 
54950 4.26794E+010 
55000 4.22926E+010 
55050 4.19093E+010 
55100 4.15294E+010 
55150 4.1153E+010 
55200 4.07799E+010 
55250 4.04102E+010 
55300 4.00439E+010 
55350 3.96808E+010 
55400 3.93211E+010 
55450 3.89645E+010 
55500 3.86112E+010 
55550 3.82611E+010 
55600 3.79141E+010 
55650 3.75703E+010 
55700 3.72296E+010 
55750 3.6892E+010 
55800 3.65573E+010 
55850 3.62258E+010 
55900 3.58972E+010 
55950 3.55716E+010 
56000 3.52489E+010 
56050 3.49291E+010 
56100 3.46122E+010 
56150 3.42982E+010 
56200 3.3987E+010 
56250 3.36787E+010 
56300 3.33731E+010 
56350 3.30703E+010 
56400 3.27702E+010 
56450 3.24728E+010 
56500 3.21781E+010 
56550 3.18861E+010 
56600 3.15967E+010 
56650 3.13099E+010 
56700 3.10257E+010 
56750 3.07441E+010 
56800 3.0465E+010 
56850 3.01884E+010 
56900 2.99144E+010 
56950 2.96428E+010 
57000 2.93737E+010 
57050 2.9107E+010 
57100 2.88427E+010 
57150 2.85808E+010 
57200 2.83213E+010 
57250 2.80641E+010 
57300 2.78093E+010 
57350 2.75568E+010 
57400 2.73065E+010 
57450 2.70585E+010 
57500 2.68127E+010 
57550 2.65692E+010 
57600 2.63279E+010 
57650 2.60887E+010 
57700 2.58517E+010 
57750 2.56169E+010 
57800 2.53842E+010 
57850 2.51536E+010 
57900 2.4925E+010 
57950 2.46986E+010 
58000 2.44742E+010 
58050 2.42518E+010 
58100 2.40314E+010 
58150 2.38131E+010 
58200 2.35967E+010 
58250 2.33822E+010 
58300 2.31697E+010 
58350 2.29591E+010 
58400 2.27505E+010 
58450 2.25437E+010 
58500 2.23388E+010 
58550 2.21357E+010 
58600 2.19345E+010 
58650 2.17351E+010 
58700 2.15376E+010 
58750 2.13417E+010 
58800 2.11477E+010 
58850 2.09555E+010 
58900 2.07649E+010 
58950 2.05761E+010 
59000 2.0389E+010 
59050 2.02036E+010 
59100 2.00199E+010 
59150 1.98379E+010 
59200 1.96575E+010 
59250 1.94787E+010 
59300 1.93015E+010 
59350 1.9126E+010 
59400 1.8952E+010 
59450 1.87797E+010 
59500 1.86088E+010 
59550 1.84396E+010 
59600 1.82718E+010 
59650 1.81056E+010 
59700 1.79409E+010 
59750 1.77777E+010 
59800 1.76159E+010 
59850 1.74557E+010 
59900 1.72969E+010 
59950 1.71395E+010 
60000 1.69835E+010 
60050 1.6829E+010 
60100 1.66758E+010 
60150 1.65241E+010 
60200 1.63737E+010 
60250 1.62247E+010 
60300 1.6077E+010 
60350 1.59307E+010 
60400 1.57857E+010 
60450 1.5642E+010 
60500 1.54997E+010 
60550 1.53586E+010 
60600 1.52188E+010 
60650 1.50803E+010 
60700 1.4943E+010 
60750 1.48069E+010 
60800 1.46721E+010 
60850 1.45386E+010 
60900 1.44062E+010 
60950 1.4275E+010 
61000 1.4145E+010 
61050 1.40162E+010 
61100 1.38886E+010 
61150 1.37621E+010 
61200 1.36368E+010 
61250 1.35126E+010 
61300 1.33896E+010 
61350 1.32676E+010 
61400 1.31468E+010 
61450 1.30271E+010 
61500 1.29084E+010 
61550 1.27908E+010 
61600 1.26743E+010 
61650 1.25589E+010 
61700 1.24445E+010 
61750 1.23311E+010 
61800 1.22188E+010 
61850 1.21075E+010 
61900 1.19972E+010 
61950 1.18879E+010 
62000 1.17796E+010 
62050 1.16722E+010 
62100 1.15659E+010 
62150 1.14605E+010 
62200 1.13561E+010 
62250 1.12526E+010 
62300 1.115E+010 
62350 1.10484E+010 
62400 1.09477E+010 
62450 1.0848E+010 
62500 1.07491E+010 
62550 1.06511E+010 
62600 1.05541E+010 
62650 1.04579E+010 
62700 1.03626E+010 
62750 1.02681E+010 
62800 1.01745E+010 
62850 1.00818E+010 
62900 9.98984E+009 
62950 9.89878E+009 
63000 9.80853E+009 
63050 9.71911E+009 
63100 9.6305E+009 
63150 9.5427E+009 
63200 9.4557E+009 
63250 9.36948E+009 
63300 9.28405E+009 
63350 9.1994E+009 
63400 9.11551E+009 
63450 9.03239E+009 
63500 8.95002E+009 
63550 8.86841E+009 
63600 8.78753E+009 
63650 8.70739E+009 
63700 8.62798E+009 
63750 8.54929E+009 
63800 8.47131E+009 
63850 8.39405E+009 
63900 8.31748E+009 
63950 8.24162E+009 
64000 8.16644E+009 
64050 8.09195E+009 
64100 8.01813E+009 
64150 7.94499E+009 
64200 7.87251E+009 
64250 7.80069E+009 
64300 7.72952E+009 
64350 7.659E+009 
64400 7.58912E+009 
64450 7.51988E+009 
64500 7.45127E+009 
64550 7.38328E+009 
64600 7.31591E+009 
64650 7.24916E+009 
64700 7.18301E+009 
64750 7.11746E+009 
64800 7.05251E+009 
64850 6.98815E+009 
64900 6.92437E+009 
64950 6.86118E+009 
65000 6.79856E+009 
65050 6.73651E+009 
65100 6.67503E+009 
65150 6.6141E+009 
65200 6.55373E+009 
65250 6.49391E+009 
65300 6.43463E+009 
65350 6.3759E+009 
65400 6.31769E+009 
65450 6.26002E+009 
65500 6.20287E+009 
65550 6.14625E+009 
65600 6.09014E+009 
65650 6.03453E+009 
65700 5.97944E+009 
65750 5.92485E+009 
65800 5.87075E+009 
65850 5.81715E+009 
65900 5.76403E+009 
65950 5.7114E+009 
66000 5.65925E+009 
66050 5.60757E+009 
66100 5.55636E+009 
66150 5.50563E+009 
66200 5.45535E+009 
66250 5.40553E+009 
66300 5.35616E+009 
66350 5.30724E+009 
66400 5.25877E+009 
66450 5.21074E+009 
66500 5.16315E+009 
66550 5.11599E+009 
66600 5.06926E+009 
66650 5.02296E+009 
66700 4.97707E+009 
66750 4.93161E+009 
66800 4.88656E+009 
66850 4.84192E+009 
66900 4.79769E+009 
66950 4.75386E+009 
67000 4.71043E+009 
67050 4.6674E+009 
67100 4.62475E+009 
67150 4.5825E+009 
67200 4.54063E+009 
67250 4.49914E+009 
67300 4.45804E+009 
67350 4.4173E+009 
67400 4.37694E+009 
67450 4.33694E+009 
67500 4.29731E+009 
67550 4.25804E+009 
67600 4.21913E+009 
67650 4.18057E+009 
67700 4.14237E+009 
67750 4.10451E+009 
67800 4.067E+009 
67850 4.02983E+009 
67900 3.993E+009 
67950 3.95651E+009 
68000 3.92034E+009 
68050 3.88451E+009 
68100 3.849E+009 
68150 3.81382E+009 
68200 3.77896E+009 
68250 3.74442E+009 
68300 3.71019E+009 
68350 3.67627E+009 
68400 3.64266E+009 
68450 3.60936E+009 
68500 3.57637E+009 
68550 3.54367E+009 
68600 3.51127E+009 
68650 3.47917E+009 
68700 3.44736E+009 
68750 3.41584E+009 
68800 3.38461E+009 
68850 3.35366E+009 
68900 3.323E+009 
68950 3.29261E+009 
69000 3.2625E+009 
69050 3.23267E+009 
69100 3.20311E+009 
69150 3.17382E+009 
69200 3.1448E+009 
69250 3.11604E+009 
69300 3.08754E+009 
69350 3.0593E+009 
69400 3.03132E+009 
69450 3.0036E+009 
69500 2.97613E+009 
69550 2.94891E+009 
69600 2.92194E+009 
69650 2.89521E+009 
69700 2.86873E+009 
69750 2.84249E+009 
69800 2.81649E+009 
69850 2.79073E+009 
69900 2.7652E+009 
69950 2.7399E+009 
70000 2.71484E+009 
70050 2.69E+009 
70100 2.66539E+009 
70150 2.64101E+009 
70200 2.61685E+009 
70250 2.59291E+009 
70300 2.56918E+009 
70350 2.54568E+009 
70400 2.52239E+009 
70450 2.49931E+009 
70500 2.47644E+009 
70550 2.45378E+009 
70600 2.43133E+009 
70650 2.40908E+009 
70700 2.38704E+009 
70750 2.36519E+009 
70800 2.34355E+009 
70850 2.3221E+009 
70900 2.30085E+009 
70950 2.2798E+009 
71000 2.25893E+009 
71050 2.23826E+009 
71100 2.21778E+009 
71150 2.19748E+009 
71200 2.17737E+009 
71250 2.15744E+009 
71300 2.13769E+009 
71350 2.11813E+009 
71400 2.09874E+009 
71450 2.07953E+009 
71500 2.06049E+009 
71550 2.04163E+009 
71600 2.02295E+009 
71650 2.00443E+009 
71700 1.98608E+009 
71750 1.9679E+009 
71800 1.94988E+009 
71850 1.93203E+009 
71900 1.91434E+009 
71950 1.89682E+009 
72000 1.87945E+009 
72050 1.86225E+009 
72100 1.8452E+009 
72150 1.8283E+009 
72200 1.81156E+009 
72250 1.79498E+009 
72300 1.77854E+009 
72350 1.76226E+009 
72400 1.74612E+009 
72450 1.73013E+009 
72500 1.71429E+009 
72550 1.69859E+009 
72600 1.68304E+009 
72650 1.66763E+009 
72700 1.65236E+009 
72750 1.63722E+009 
72800 1.62223E+009 
72850 1.60737E+009 
72900 1.59265E+009 
72950 1.57807E+009 
73000 1.56362E+009 
73050 1.54929E+009 
73100 1.53511E+009 
73150 1.52105E+009 
73200 1.50711E+009 
73250 1.49331E+009 
73300 1.47963E+009 
73350 1.46608E+009 
73400 1.45265E+009 
73450 1.43935E+009 
73500 1.42616E+009 
73550 1.4131E+009 
73600 1.40015E+009 
73650 1.38733E+009 
73700 1.37462E+009 
73750 1.36202E+009 
73800 1.34955E+009 
73850 1.33718E+009 
73900 1.32493E+009 
73950 1.3128E+009 
74000 1.30077E+009 
74050 1.28885E+009 
74100 1.27704E+009 
74150 1.26534E+009 
74200 1.25375E+009 
74250 1.24226E+009 
74300 1.23088E+009 
74350 1.2196E+009 
74400 1.20843E+009 
74450 1.19735E+009 
74500 1.18638E+009 
74550 1.17551E+009 
74600 1.16474E+009 
74650 1.15407E+009 
74700 1.14349E+009 
74750 1.13301E+009 
74800 1.12263E+009 
74850 1.11234E+009 
74900 1.10215E+009 
74950 1.09205E+009 
75000 1.08204E+009 
75050 1.07212E+009 
75100 1.0623E+009 
75150 1.05256E+009 
75200 1.04291E+009 
75250 1.03335E+009 
75300 1.02388E+009 
75350 1.0145E+009 
75400 1.0052E+009 
75450 9.95986E+008 
75500 9.86857E+008 
75550 9.77811E+008 
75600 9.68848E+008 
75650 9.59967E+008 
75700 9.51168E+008 
75750 9.42449E+008 
75800 9.33809E+008 
75850 9.25249E+008 
75900 9.16767E+008 
75950 9.08363E+008 
76000 9.00035E+008 
76050 8.91784E+008 
76100 8.83608E+008 
76150 8.75508E+008 
76200 8.67481E+008 
76250 8.59528E+008 
76300 8.51647E+008 
76350 8.43839E+008 
76400 8.36102E+008 
76450 8.28436E+008 
76500 8.2084E+008 
76550 8.13314E+008 
76600 8.05857E+008 
76650 7.98467E+008 
76700 7.91146E+008 
76750 7.83891E+008 
76800 7.76703E+008 
76850 7.69581E+008 
76900 7.62524E+008 
76950 7.55532E+008 
77000 7.48603E+008 
77050 7.41738E+008 
77100 7.34936E+008 
77150 7.28196E+008 
77200 7.21518E+008 
77250 7.14901E+008 
77300 7.08345E+008 
77350 7.01849E+008 
77400 6.95412E+008 
77450 6.89034E+008 
77500 6.82714E+008 
77550 6.76452E+008 
77600 6.70248E+008 
77650 6.64101E+008 
77700 6.58009E+008 
77750 6.51974E+008 
77800 6.45994E+008 
77850 6.40069E+008 
77900 6.34198E+008 
77950 6.2838E+008 
78000 6.22616E+008 
78050 6.16905E+008 
78100 6.11246E+008 
78150 6.05639E+008 
78200 6.00083E+008 
78250 5.94578E+008 
78300 5.89124E+008 
78350 5.83719E+008 
78400 5.78364E+008 
78450 5.73058E+008 
78500 5.67801E+008 
78550 5.62592E+008 
78600 5.57431E+008 
78650 5.52316E+008 
78700 5.47249E+008 
78750 5.42228E+008 
78800 5.37253E+008 
78850 5.32324E+008 
78900 5.2744E+008 
78950 5.22601E+008 
79000 5.17806E+008 
79050 5.13054E+008 
79100 5.08347E+008 
79150 5.03682E+008 
79200 4.99061E+008 
79250 4.94481E+008 
79300 4.89944E+008 
79350 4.85448E+008 
79400 4.80993E+008 
79450 4.76579E+008 
79500 4.72206E+008 
79550 4.67873E+008 
79600 4.63579E+008 
79650 4.59325E+008 
79700 4.5511E+008 
79750 4.50933E+008 
79800 4.46795E+008 
79850 4.42694E+008 
79900 4.38632E+008 
79950 4.34606E+008 
80000 4.30617E+008 
80050 4.26665E+008 
80100 4.22749E+008 
80150 4.18869E+008 
80200 4.15025E+008 
80250 4.11215E+008 
80300 4.07441E+008 
80350 4.03701E+008 
80400 3.99996E+008 
80450 3.96325E+008 
80500 3.92687E+008 
80550 3.89082E+008 
80600 3.85511E+008 
80650 3.81972E+008 
80700 3.78466E+008 
80750 3.74992E+008 
80800 3.71549E+008 
80850 3.68139E+008 
80900 3.64759E+008 
80950 3.61411E+008 
81000 3.58093E+008 
81050 3.54806E+008 
81100 3.51549E+008 
81150 3.48321E+008 
81200 3.45123E+008 
81250 3.41955E+008 
81300 3.38815E+008 
81350 3.35705E+008 
81400 3.32623E+008 
81450 3.29569E+008 
81500 3.26543E+008 
81550 3.23545E+008 
81600 3.20575E+008 
81650 3.17631E+008 
81700 3.14715E+008 
81750 3.11825E+008 
81800 3.08962E+008 
81850 3.06125E+008 
81900 3.03314E+008 
81950 3.00529E+008 
82000 2.9777E+008 
82050 2.95036E+008 
82100 2.92326E+008 
82150 2.89642E+008 
82200 2.86982E+008 
82250 2.84347E+008 
82300 2.81736E+008 
82350 2.79149E+008 
82400 2.76586E+008 
82450 2.74046E+008 
82500 2.71529E+008 
82550 2.69035E+008 
82600 2.66565E+008 
82650 2.64117E+008 
82700 2.61691E+008 
82750 2.59288E+008 
82800 2.56907E+008 
82850 2.54547E+008 
82900 2.52209E+008 
82950 2.49893E+008 
83000 2.47598E+008 
83050 2.45324E+008 
83100 2.43071E+008 
83150 2.40838E+008 
83200 2.38626E+008 
83250 2.36434E+008 
83300 2.34263E+008 
83350 2.32111E+008 
83400 2.29979E+008 
83450 2.27867E+008 
83500 2.25774E+008 
83550 2.237E+008 
83600 2.21645E+008 
83650 2.19609E+008 
83700 2.17592E+008 
83750 2.15593E+008 
83800 2.13613E+008 
83850 2.1165E+008 
83900 2.09706E+008 
83950 2.0778E+008 
84000 2.05871E+008 
84050 2.0398E+008 
84100 2.02106E+008 
84150 2.00249E+008 
84200 1.9841E+008 
84250 1.96587E+008 
84300 1.94781E+008 
84350 1.92992E+008 
84400 1.91219E+008 
84450 1.89462E+008 
84500 1.87721E+008 
84550 1.85996E+008 
84600 1.84288E+008 
84650 1.82595E+008 
84700 1.80917E+008 
84750 1.79255E+008 
84800 1.77608E+008 
84850 1.75976E+008 
84900 1.74359E+008 
84950 1.72757E+008 
85000 1.7117E+008 
85050 1.69597E+008 
85100 1.68039E+008 
85150 1.66495E+008 
85200 1.64965E+008 
85250 1.63449E+008 
85300 1.61947E+008 
85350 1.60459E+008 
85400 1.58985E+008 
85450 1.57524E+008 
85500 1.56076E+008 
85550 1.54642E+008 
85600 1.53221E+008 
85650 1.51813E+008 
85700 1.50418E+008 
85750 1.49036E+008 
85800 1.47666E+008 
85850 1.46309E+008 
85900 1.44964E+008 
85950 1.43632E+008 
86000 1.42312E+008 
86050 1.41004E+008 
86100 1.39708E+008 
86150 1.38425E+008 
86200 1.37152E+008 
86250 1.35892E+008 
86300 1.34643E+008 
86350 1.33406E+008 
86400 1.32179E+008 
86450 1.30965E+008 
86500 1.29761E+008 
86550 1.28568E+008 
86600 1.27387E+008 
86650 1.26216E+008 
86700 1.25056E+008 
86750 1.23906E+008 
86800 1.22767E+008 
86850 1.21639E+008 
86900 1.20521E+008 
86950 1.19413E+008 
87000 1.18316E+008 
87050 1.17228E+008 
87100 1.1615E+008 
87150 1.15083E+008 
87200 1.14025E+008 
87250 1.12977E+008 
87300 1.11938E+008 
87350 1.10909E+008 
87400 1.0989E+008 
87450 1.0888E+008 
87500 1.07879E+008 
87550 1.06887E+008 
87600 1.05905E+008 
87650 1.04931E+008 
87700 1.03966E+008 
87750 1.03011E+008 
87800 1.02064E+008 
87850 1.01125E+008 
87900 1.00196E+008 
87950 9.92746E+007 
88000 9.83619E+007 
88050 9.74576E+007 
88100 9.65617E+007 
88150 9.56739E+007 
88200 9.47943E+007 
88250 9.39228E+007 
88300 9.30593E+007 
88350 9.22037E+007 
88400 9.1356E+007 
88450 9.0516E+007 
88500 8.96838E+007 
88550 8.88592E+007 
88600 8.80422E+007 
88650 8.72328E+007 
88700 8.64307E+007 
88750 8.5636E+007 
88800 8.48486E+007 
88850 8.40684E+007 
88900 8.32955E+007 
88950 8.25296E+007 
89000 8.17707E+007 
89050 8.10188E+007 
89100 8.02738E+007 
89150 7.95357E+007 
89200 7.88044E+007 
89250 7.80797E+007 
89300 7.73618E+007 
89350 7.66504E+007 
89400 7.59455E+007 
89450 7.52472E+007 
89500 7.45552E+007 
89550 7.38696E+007 
89600 7.31903E+007 
89650 7.25173E+007 
89700 7.18504E+007 
89750 7.11897E+007 
89800 7.0535E+007 
89850 6.98863E+007 
89900 6.92436E+007 
89950 6.86068E+007 
90000 6.79759E+007 
90050 6.73508E+007 
90100 6.67314E+007 
90150 6.61177E+007 
90200 6.55096E+007 
90250 6.49071E+007 
90300 6.43102E+007 
90350 6.37187E+007 
90400 6.31327E+007 
90450 6.2552E+007 
90500 6.19767E+007 
90550 6.14067E+007 
90600 6.0842E+007 
90650 6.02824E+007 
90700 5.97279E+007 
90750 5.91786E+007 
90800 5.86343E+007 
90850 5.8095E+007 
90900 5.75606E+007 
90950 5.70312E+007 
91000 5.65066E+007 
91050 5.59869E+007 
91100 5.54719E+007 
91150 5.49617E+007 
91200 5.44561E+007 
91250 5.39552E+007 
91300 5.34589E+007 
91350 5.29672E+007 
91400 5.248E+007 
91450 5.19972E+007 
91500 5.15189E+007 
91550 5.1045E+007 
91600 5.05755E+007 
91650 5.01102E+007 
91700 4.96493E+007 
91750 4.91926E+007 
91800 4.874E+007 
91850 4.82917E+007 
91900 4.78474E+007 
91950 4.74073E+007 
92000 4.69712E+007 
92050 4.65391E+007 
92100 4.61109E+007 
92150 4.56867E+007 
92200 4.52664E+007 
92250 4.485E+007 
92300 4.44374E+007 
92350 4.40286E+007 
92400 4.36235E+007 
92450 4.32222E+007 
92500 4.28245E+007 
92550 4.24306E+007 
92600 4.20402E+007 
92650 4.16534E+007 
92700 4.12702E+007 
92750 4.08905E+007 
92800 4.05143E+007 
92850 4.01415E+007 
92900 3.97722E+007 
92950 3.94063E+007 
93000 3.90437E+007 
93050 3.86845E+007 
93100 3.83286E+007 
93150 3.79759E+007 
93200 3.76265E+007 
93250 3.72803E+007 
93300 3.69373E+007 
93350 3.65974E+007 
93400 3.62607E+007 
93450 3.59271E+007 
93500 3.55965E+007 
93550 3.5269E+007 
93600 3.49444E+007 
93650 3.46229E+007 
93700 3.43043E+007 
93750 3.39887E+007 
93800 3.36759E+007 
93850 3.3366E+007 
93900 3.3059E+007 
93950 3.27548E+007 
94000 3.24534E+007 
94050 3.21548E+007 
94100 3.18589E+007 
94150 3.15657E+007 
94200 3.12752E+007 
94250 3.09874E+007 
94300 3.07023E+007 
94350 3.04198E+007 
94400 3.01398E+007 
94450 2.98625E+007 
94500 2.95877E+007 
94550 2.93154E+007 
94600 2.90456E+007 
94650 2.87783E+007 
94700 2.85135E+007 
94750 2.82511E+007 
94800 2.79911E+007 
94850 2.77335E+007 
94900 2.74782E+007 
94950 2.72254E+007 
95000 2.69748E+007 
95050 2.67265E+007 
95100 2.64806E+007 
95150 2.62369E+007 
95200 2.59954E+007 
95250 2.57562E+007 
95300 2.55191E+007 
95350 2.52843E+007 
95400 2.50515E+007 
95450 2.4821E+007 
95500 2.45925E+007 
95550 2.43662E+007 
95600 2.41419E+007 
95650 2.39197E+007 
95700 2.36996E+007 
95750 2.34814E+007 
95800 2.32653E+007 
95850 2.30512E+007 
95900 2.2839E+007 
95950 2.26288E+007 
96000 2.24205E+007 
96050 2.22142E+007 
96100 2.20097E+007 
96150 2.18071E+007 
96200 2.16064E+007 
96250 2.14075E+007 
96300 2.12105E+007 
96350 2.10152E+007 
96400 2.08218E+007 
96450 2.06301E+007 
96500 2.04402E+007 
96550 2.02521E+007 
96600 2.00657E+007 
96650 1.9881E+007 
96700 1.9698E+007 
96750 1.95166E+007 
96800 1.9337E+007 
96850 1.9159E+007 
96900 1.89826E+007 
96950 1.88079E+007 
97000 1.86347E+007 
97050 1.84632E+007 
97100 1.82932E+007 
97150 1.81248E+007 
97200 1.7958E+007 
97250 1.77927E+007 
97300 1.76289E+007 
97350 1.74666E+007 
97400 1.73058E+007 
97450 1.71465E+007 
97500 1.69886E+007 
97550 1.68323E+007 
97600 1.66773E+007 
97650 1.65238E+007 
97700 1.63716E+007 
97750 1.62209E+007 
97800 1.60716E+007 
97850 1.59236E+007 
97900 1.5777E+007 
97950 1.56318E+007 
98000 1.54879E+007 
98050 1.53453E+007 
98100 1.5204E+007 
98150 1.5064E+007 
98200 1.49253E+007 
98250 1.47879E+007 
98300 1.46518E+007 
98350 1.45169E+007 
98400 1.43832E+007 
98450 1.42508E+007 
98500 1.41196E+007 
98550 1.39896E+007 
98600 1.38608E+007 
98650 1.37332E+007 
98700 1.36067E+007 
98750 1.34815E+007 
98800 1.33573E+007 
98850 1.32343E+007 
98900 1.31125E+007 
98950 1.29918E+007 
99000 1.28721E+007 
99050 1.27536E+007 
99100 1.26362E+007 
99150 1.25198E+007 
99200 1.24046E+007 
99250 1.22904E+007 
99300 1.21772E+007 
99350 1.20651E+007 
99400 1.1954E+007 
99450 1.18439E+007 
99500 1.17348E+007 
99550 1.16268E+007 
99600 1.15197E+007 
99650 1.14137E+007 
99700 1.13086E+007 
99750 1.12044E+007 
99800 1.11013E+007 
99850 1.0999E+007 
99900 1.08977E+007 
99950 1.07974E+007 
100000 1.0698E+007 
