#F U:\Beamline I20\I20-1_EDE\Wigglers\xop\83mm-small-wiggler\EDE line ranges\0p9T-300mA-0p12x1p6mrad.dat
#C I20EDE 0.9T 300mA 0.12x1.6mrad
#S 1 File written by xplot on Tue Sep 10 16:37:37 2013
#N 2
#L    Energy [eV]  Flux [ph/s/0.1%bw]
50 1.40854E+013 
100 2.23193E+013 
150 2.91684E+013 
200 3.52197E+013 
250 4.07172E+013 
300 4.57924E+013 
350 5.05267E+013 
400 5.4975E+013 
450 5.91766E+013 
500 6.3161E+013 
550 6.69513E+013 
600 7.05656E+013 
650 7.4019E+013 
700 7.7324E+013 
750 8.0491E+013 
800 8.35292E+013 
850 8.64464E+013 
900 8.92495E+013 
950 9.19446E+013 
1000 9.45372E+013 
1050 9.70322E+013 
1100 9.9434E+013 
1150 1.01747E+014 
1200 1.03974E+014 
1250 1.06119E+014 
1300 1.08186E+014 
1350 1.10176E+014 
1400 1.12094E+014 
1450 1.13941E+014 
1500 1.15719E+014 
1550 1.17432E+014 
1600 1.19081E+014 
1650 1.20668E+014 
1700 1.22196E+014 
1750 1.23665E+014 
1800 1.25078E+014 
1850 1.26437E+014 
1900 1.27742E+014 
1950 1.28996E+014 
2000 1.30199E+014 
2050 1.31354E+014 
2100 1.32461E+014 
2150 1.33523E+014 
2200 1.34539E+014 
2250 1.35512E+014 
2300 1.36441E+014 
2350 1.3733E+014 
2400 1.38178E+014 
2450 1.38987E+014 
2500 1.39757E+014 
2550 1.4049E+014 
2600 1.41186E+014 
2650 1.41847E+014 
2700 1.42473E+014 
2750 1.43065E+014 
2800 1.43624E+014 
2850 1.44152E+014 
2900 1.44647E+014 
2950 1.45112E+014 
3000 1.45547E+014 
3050 1.45953E+014 
3100 1.46331E+014 
3150 1.4668E+014 
3200 1.47003E+014 
3250 1.47299E+014 
3300 1.4757E+014 
3350 1.47815E+014 
3400 1.48036E+014 
3450 1.48232E+014 
3500 1.48405E+014 
3550 1.48556E+014 
3600 1.48684E+014 
3650 1.4879E+014 
3700 1.48875E+014 
3750 1.4894E+014 
3800 1.48984E+014 
3850 1.49009E+014 
3900 1.49014E+014 
3950 1.49E+014 
4000 1.48969E+014 
4050 1.48919E+014 
4100 1.48852E+014 
4150 1.48768E+014 
4200 1.48667E+014 
4250 1.4855E+014 
4300 1.48418E+014 
4350 1.4827E+014 
4400 1.48107E+014 
4450 1.4793E+014 
4500 1.47739E+014 
4550 1.47533E+014 
4600 1.47314E+014 
4650 1.47082E+014 
4700 1.46837E+014 
4750 1.4658E+014 
4800 1.4631E+014 
4850 1.46029E+014 
4900 1.45736E+014 
4950 1.45433E+014 
5000 1.45118E+014 
5050 1.44792E+014 
5100 1.44456E+014 
5150 1.44111E+014 
5200 1.43755E+014 
5250 1.4339E+014 
5300 1.43016E+014 
5350 1.42633E+014 
5400 1.42241E+014 
5450 1.4184E+014 
5500 1.41432E+014 
5550 1.41015E+014 
5600 1.40591E+014 
5650 1.40159E+014 
5700 1.3972E+014 
5750 1.39274E+014 
5800 1.38821E+014 
5850 1.38362E+014 
5900 1.37896E+014 
5950 1.37424E+014 
6000 1.36946E+014 
6050 1.36462E+014 
6100 1.35972E+014 
6150 1.35478E+014 
6200 1.34978E+014 
6250 1.34472E+014 
6300 1.33962E+014 
6350 1.33447E+014 
6400 1.32928E+014 
6450 1.32404E+014 
6500 1.31876E+014 
6550 1.31345E+014 
6600 1.30809E+014 
6650 1.30269E+014 
6700 1.29726E+014 
6750 1.29179E+014 
6800 1.28629E+014 
6850 1.28076E+014 
6900 1.2752E+014 
6950 1.26961E+014 
7000 1.264E+014 
7050 1.25836E+014 
7100 1.25269E+014 
7150 1.247E+014 
7200 1.24128E+014 
7250 1.23555E+014 
7300 1.22979E+014 
7350 1.22402E+014 
7400 1.21823E+014 
7450 1.21242E+014 
7500 1.2066E+014 
7550 1.20076E+014 
7600 1.19491E+014 
7650 1.18904E+014 
7700 1.18317E+014 
7750 1.17728E+014 
7800 1.17139E+014 
7850 1.16548E+014 
7900 1.15957E+014 
7950 1.15365E+014 
8000 1.14773E+014 
8050 1.1418E+014 
8100 1.13586E+014 
8150 1.12992E+014 
8200 1.12398E+014 
8250 1.11804E+014 
8300 1.1121E+014 
8350 1.10615E+014 
8400 1.10021E+014 
8450 1.09426E+014 
8500 1.08832E+014 
8550 1.08239E+014 
8600 1.07645E+014 
8650 1.07052E+014 
8700 1.06459E+014 
8750 1.05866E+014 
8800 1.05275E+014 
8850 1.04684E+014 
8900 1.04093E+014 
8950 1.03503E+014 
9000 1.02914E+014 
9050 1.02326E+014 
9100 1.01739E+014 
9150 1.01152E+014 
9200 1.00567E+014 
9250 9.99825E+013 
9300 9.93992E+013 
9350 9.8817E+013 
9400 9.8236E+013 
9450 9.76562E+013 
9500 9.70776E+013 
9550 9.65003E+013 
9600 9.59243E+013 
9650 9.53498E+013 
9700 9.47766E+013 
9750 9.42048E+013 
9800 9.36346E+013 
9850 9.30658E+013 
9900 9.24986E+013 
9950 9.1933E+013 
10000 9.1369E+013 
10050 9.08066E+013 
10100 9.02459E+013 
10150 8.96869E+013 
10200 8.91297E+013 
10250 8.85742E+013 
10300 8.80205E+013 
10350 8.74686E+013 
10400 8.69185E+013 
10450 8.63703E+013 
10500 8.5824E+013 
10550 8.52796E+013 
10600 8.47371E+013 
10650 8.41966E+013 
10700 8.36581E+013 
10750 8.31215E+013 
10800 8.2587E+013 
10850 8.20545E+013 
10900 8.1524E+013 
10950 8.09956E+013 
11000 8.04693E+013 
11050 7.99451E+013 
11100 7.9423E+013 
11150 7.89031E+013 
11200 7.83852E+013 
11250 7.78696E+013 
11300 7.73561E+013 
11350 7.68448E+013 
11400 7.63357E+013 
11450 7.58288E+013 
11500 7.53241E+013 
11550 7.48217E+013 
11600 7.43215E+013 
11650 7.38235E+013 
11700 7.33278E+013 
11750 7.28344E+013 
11800 7.23432E+013 
11850 7.18544E+013 
11900 7.13678E+013 
11950 7.08835E+013 
12000 7.04015E+013 
12050 6.99218E+013 
12100 6.94445E+013 
12150 6.89695E+013 
12200 6.84968E+013 
12250 6.80264E+013 
12300 6.75583E+013 
12350 6.70926E+013 
12400 6.66293E+013 
12450 6.61682E+013 
12500 6.57096E+013 
12550 6.52532E+013 
12600 6.47993E+013 
12650 6.43476E+013 
12700 6.38984E+013 
12750 6.34515E+013 
12800 6.30069E+013 
12850 6.25647E+013 
12900 6.21249E+013 
12950 6.16874E+013 
13000 6.12523E+013 
13050 6.08195E+013 
13100 6.03891E+013 
13150 5.9961E+013 
13200 5.95353E+013 
13250 5.91119E+013 
13300 5.86909E+013 
13350 5.82722E+013 
13400 5.78559E+013 
13450 5.74419E+013 
13500 5.70303E+013 
13550 5.6621E+013 
13600 5.6214E+013 
13650 5.58093E+013 
13700 5.5407E+013 
13750 5.5007E+013 
13800 5.46093E+013 
13850 5.4214E+013 
13900 5.38209E+013 
13950 5.34301E+013 
14000 5.30417E+013 
14050 5.26555E+013 
14100 5.22716E+013 
14150 5.189E+013 
14200 5.15107E+013 
14250 5.11337E+013 
14300 5.07589E+013 
14350 5.03864E+013 
14400 5.00161E+013 
14450 4.96481E+013 
14500 4.92823E+013 
14550 4.89188E+013 
14600 4.85575E+013 
14650 4.81984E+013 
14700 4.78416E+013 
14750 4.74869E+013 
14800 4.71345E+013 
14850 4.67842E+013 
14900 4.64362E+013 
14950 4.60903E+013 
15000 4.57466E+013 
15050 4.54051E+013 
15100 4.50657E+013 
15150 4.47285E+013 
15200 4.43934E+013 
15250 4.40605E+013 
15300 4.37296E+013 
15350 4.3401E+013 
15400 4.30744E+013 
15450 4.27499E+013 
15500 4.24275E+013 
15550 4.21073E+013 
15600 4.17891E+013 
15650 4.14729E+013 
15700 4.11589E+013 
15750 4.08468E+013 
15800 4.05369E+013 
15850 4.02289E+013 
15900 3.9923E+013 
15950 3.96192E+013 
16000 3.93173E+013 
16050 3.90174E+013 
16100 3.87196E+013 
16150 3.84237E+013 
16200 3.81298E+013 
16250 3.78378E+013 
16300 3.75479E+013 
16350 3.72598E+013 
16400 3.69738E+013 
16450 3.66896E+013 
16500 3.64074E+013 
16550 3.61271E+013 
16600 3.58486E+013 
16650 3.55721E+013 
16700 3.52975E+013 
16750 3.50247E+013 
16800 3.47539E+013 
16850 3.44848E+013 
16900 3.42177E+013 
16950 3.39523E+013 
17000 3.36888E+013 
17050 3.34271E+013 
17100 3.31673E+013 
17150 3.29092E+013 
17200 3.26529E+013 
17250 3.23984E+013 
17300 3.21457E+013 
17350 3.18948E+013 
17400 3.16456E+013 
17450 3.13982E+013 
17500 3.11525E+013 
17550 3.09085E+013 
17600 3.06662E+013 
17650 3.04257E+013 
17700 3.01868E+013 
17750 2.99497E+013 
17800 2.97142E+013 
17850 2.94804E+013 
17900 2.92483E+013 
17950 2.90178E+013 
18000 2.8789E+013 
18050 2.85618E+013 
18100 2.83362E+013 
18150 2.81122E+013 
18200 2.78899E+013 
18250 2.76692E+013 
18300 2.745E+013 
18350 2.72324E+013 
18400 2.70164E+013 
18450 2.6802E+013 
18500 2.65891E+013 
18550 2.63778E+013 
18600 2.6168E+013 
18650 2.59597E+013 
18700 2.57529E+013 
18750 2.55477E+013 
18800 2.53439E+013 
18850 2.51417E+013 
18900 2.49409E+013 
18950 2.47416E+013 
19000 2.45437E+013 
19050 2.43473E+013 
19100 2.41524E+013 
19150 2.39589E+013 
19200 2.37668E+013 
19250 2.35761E+013 
19300 2.33868E+013 
19350 2.3199E+013 
19400 2.30125E+013 
19450 2.28275E+013 
19500 2.26438E+013 
19550 2.24614E+013 
19600 2.22805E+013 
19650 2.21008E+013 
19700 2.19226E+013 
19750 2.17456E+013 
19800 2.157E+013 
19850 2.13957E+013 
19900 2.12227E+013 
19950 2.1051E+013 
20000 2.08806E+013 
20050 2.07114E+013 
20100 2.05436E+013 
20150 2.0377E+013 
20200 2.02117E+013 
20250 2.00476E+013 
20300 1.98848E+013 
20350 1.97232E+013 
20400 1.95628E+013 
20450 1.94036E+013 
20500 1.92456E+013 
20550 1.90889E+013 
20600 1.89333E+013 
20650 1.8779E+013 
20700 1.86258E+013 
20750 1.84737E+013 
20800 1.83229E+013 
20850 1.81732E+013 
20900 1.80246E+013 
20950 1.78772E+013 
21000 1.77309E+013 
21050 1.75857E+013 
21100 1.74417E+013 
21150 1.72987E+013 
21200 1.71569E+013 
21250 1.70161E+013 
21300 1.68765E+013 
21350 1.67379E+013 
21400 1.66003E+013 
21450 1.64639E+013 
21500 1.63285E+013 
21550 1.61942E+013 
21600 1.60608E+013 
21650 1.59286E+013 
21700 1.57973E+013 
21750 1.56671E+013 
21800 1.55379E+013 
21850 1.54097E+013 
21900 1.52825E+013 
21950 1.51563E+013 
22000 1.5031E+013 
22050 1.49068E+013 
22100 1.47835E+013 
22150 1.46612E+013 
22200 1.45398E+013 
22250 1.44194E+013 
22300 1.43E+013 
22350 1.41815E+013 
22400 1.40639E+013 
22450 1.39472E+013 
22500 1.38315E+013 
22550 1.37166E+013 
22600 1.36027E+013 
22650 1.34897E+013 
22700 1.33775E+013 
22750 1.32663E+013 
22800 1.31559E+013 
22850 1.30464E+013 
22900 1.29377E+013 
22950 1.283E+013 
23000 1.2723E+013 
23050 1.26169E+013 
23100 1.25117E+013 
23150 1.24073E+013 
23200 1.23038E+013 
23250 1.2201E+013 
23300 1.20991E+013 
23350 1.1998E+013 
23400 1.18977E+013 
23450 1.17982E+013 
23500 1.16994E+013 
23550 1.16015E+013 
23600 1.15044E+013 
23650 1.1408E+013 
23700 1.13124E+013 
23750 1.12176E+013 
23800 1.11235E+013 
23850 1.10302E+013 
23900 1.09376E+013 
23950 1.08458E+013 
24000 1.07547E+013 
24050 1.06644E+013 
24100 1.05747E+013 
24150 1.04858E+013 
24200 1.03976E+013 
24250 1.03101E+013 
24300 1.02234E+013 
24350 1.01373E+013 
24400 1.00519E+013 
24450 9.96721E+012 
24500 9.8832E+012 
24550 9.79987E+012 
24600 9.71722E+012 
24650 9.63523E+012 
24700 9.55391E+012 
24750 9.47325E+012 
24800 9.39324E+012 
24850 9.31388E+012 
24900 9.23516E+012 
24950 9.15709E+012 
25000 9.07964E+012 
25050 9.00283E+012 
25100 8.92664E+012 
25150 8.85108E+012 
25200 8.77612E+012 
25250 8.70178E+012 
25300 8.62805E+012 
25350 8.55491E+012 
25400 8.48237E+012 
25450 8.41043E+012 
25500 8.33907E+012 
25550 8.2683E+012 
25600 8.1981E+012 
25650 8.12848E+012 
25700 8.05943E+012 
25750 7.99095E+012 
25800 7.92302E+012 
25850 7.85565E+012 
25900 7.78884E+012 
25950 7.72257E+012 
26000 7.65685E+012 
26050 7.59167E+012 
26100 7.52702E+012 
26150 7.46291E+012 
26200 7.39932E+012 
26250 7.33625E+012 
26300 7.27371E+012 
26350 7.21168E+012 
26400 7.15016E+012 
26450 7.08915E+012 
26500 7.02864E+012 
26550 6.96863E+012 
26600 6.90912E+012 
26650 6.85009E+012 
26700 6.79156E+012 
26750 6.73351E+012 
26800 6.67594E+012 
26850 6.61885E+012 
26900 6.56223E+012 
26950 6.50607E+012 
27000 6.45039E+012 
27050 6.39516E+012 
27100 6.3404E+012 
27150 6.28608E+012 
27200 6.23222E+012 
27250 6.17881E+012 
27300 6.12584E+012 
27350 6.07331E+012 
27400 6.02121E+012 
27450 5.96955E+012 
27500 5.91832E+012 
27550 5.86752E+012 
27600 5.81714E+012 
27650 5.76718E+012 
27700 5.71763E+012 
27750 5.6685E+012 
27800 5.61978E+012 
27850 5.57147E+012 
27900 5.52356E+012 
27950 5.47605E+012 
28000 5.42893E+012 
28050 5.38221E+012 
28100 5.33588E+012 
28150 5.28994E+012 
28200 5.24438E+012 
28250 5.1992E+012 
28300 5.15441E+012 
28350 5.10998E+012 
28400 5.06593E+012 
28450 5.02225E+012 
28500 4.97894E+012 
28550 4.93599E+012 
28600 4.8934E+012 
28650 4.85116E+012 
28700 4.80928E+012 
28750 4.76776E+012 
28800 4.72658E+012 
28850 4.68575E+012 
28900 4.64526E+012 
28950 4.60511E+012 
29000 4.5653E+012 
29050 4.52583E+012 
29100 4.48669E+012 
29150 4.44788E+012 
29200 4.40939E+012 
29250 4.37123E+012 
29300 4.3334E+012 
29350 4.29588E+012 
29400 4.25868E+012 
29450 4.22179E+012 
29500 4.18521E+012 
29550 4.14894E+012 
29600 4.11298E+012 
29650 4.07733E+012 
29700 4.04197E+012 
29750 4.00692E+012 
29800 3.97216E+012 
29850 3.93769E+012 
29900 3.90352E+012 
29950 3.86963E+012 
30000 3.83604E+012 
30050 3.80273E+012 
30100 3.7697E+012 
30150 3.73695E+012 
30200 3.70448E+012 
30250 3.67228E+012 
30300 3.64036E+012 
30350 3.60871E+012 
30400 3.57733E+012 
30450 3.54621E+012 
30500 3.51536E+012 
30550 3.48477E+012 
30600 3.45444E+012 
30650 3.42437E+012 
30700 3.39456E+012 
30750 3.365E+012 
30800 3.33569E+012 
30850 3.30663E+012 
30900 3.27782E+012 
30950 3.24925E+012 
31000 3.22093E+012 
31050 3.19285E+012 
31100 3.16501E+012 
31150 3.1374E+012 
31200 3.11003E+012 
31250 3.0829E+012 
31300 3.056E+012 
31350 3.02932E+012 
31400 3.00288E+012 
31450 2.97666E+012 
31500 2.95066E+012 
31550 2.92489E+012 
31600 2.89934E+012 
31650 2.87401E+012 
31700 2.84889E+012 
31750 2.82399E+012 
31800 2.7993E+012 
31850 2.77482E+012 
31900 2.75056E+012 
31950 2.7265E+012 
32000 2.70264E+012 
32050 2.679E+012 
32100 2.65555E+012 
32150 2.63231E+012 
32200 2.60926E+012 
32250 2.58641E+012 
32300 2.56376E+012 
32350 2.54131E+012 
32400 2.51904E+012 
32450 2.49697E+012 
32500 2.47509E+012 
32550 2.4534E+012 
32600 2.43189E+012 
32650 2.41057E+012 
32700 2.38943E+012 
32750 2.36847E+012 
32800 2.34769E+012 
32850 2.3271E+012 
32900 2.30667E+012 
32950 2.28643E+012 
33000 2.26636E+012 
33050 2.24646E+012 
33100 2.22674E+012 
33150 2.20718E+012 
33200 2.18779E+012 
33250 2.16857E+012 
33300 2.14952E+012 
33350 2.13063E+012 
33400 2.1119E+012 
33450 2.09334E+012 
33500 2.07494E+012 
33550 2.05669E+012 
33600 2.0386E+012 
33650 2.02067E+012 
33700 2.00289E+012 
33750 1.98527E+012 
33800 1.9678E+012 
33850 1.95048E+012 
33900 1.93331E+012 
33950 1.91629E+012 
34000 1.89942E+012 
34050 1.88269E+012 
34100 1.86611E+012 
34150 1.84967E+012 
34200 1.83337E+012 
34250 1.81722E+012 
34300 1.80121E+012 
34350 1.78533E+012 
34400 1.76959E+012 
34450 1.75399E+012 
34500 1.73852E+012 
34550 1.72319E+012 
34600 1.70799E+012 
34650 1.69292E+012 
34700 1.67799E+012 
34750 1.66318E+012 
34800 1.6485E+012 
34850 1.63395E+012 
34900 1.61952E+012 
34950 1.60523E+012 
35000 1.59105E+012 
35050 1.577E+012 
35100 1.56307E+012 
35150 1.54926E+012 
35200 1.53557E+012 
35250 1.522E+012 
35300 1.50855E+012 
35350 1.49522E+012 
35400 1.482E+012 
35450 1.4689E+012 
35500 1.45591E+012 
35550 1.44303E+012 
35600 1.43027E+012 
35650 1.41762E+012 
35700 1.40508E+012 
35750 1.39264E+012 
35800 1.38032E+012 
35850 1.3681E+012 
35900 1.35599E+012 
35950 1.34399E+012 
36000 1.33209E+012 
36050 1.32029E+012 
36100 1.3086E+012 
36150 1.29701E+012 
36200 1.28552E+012 
36250 1.27413E+012 
36300 1.26284E+012 
36350 1.25165E+012 
36400 1.24056E+012 
36450 1.22956E+012 
36500 1.21866E+012 
36550 1.20786E+012 
36600 1.19715E+012 
36650 1.18653E+012 
36700 1.17601E+012 
36750 1.16558E+012 
36800 1.15524E+012 
36850 1.14499E+012 
36900 1.13483E+012 
36950 1.12476E+012 
37000 1.11477E+012 
37050 1.10488E+012 
37100 1.09507E+012 
37150 1.08534E+012 
37200 1.07571E+012 
37250 1.06615E+012 
37300 1.05668E+012 
37350 1.0473E+012 
37400 1.03799E+012 
37450 1.02877E+012 
37500 1.01963E+012 
37550 1.01057E+012 
37600 1.00159E+012 
37650 9.92683E+011 
37700 9.83858E+011 
37750 9.75111E+011 
37800 9.6644E+011 
37850 9.57845E+011 
37900 9.49326E+011 
37950 9.40882E+011 
38000 9.32512E+011 
38050 9.24216E+011 
38100 9.15992E+011 
38150 9.07841E+011 
38200 8.99761E+011 
38250 8.91752E+011 
38300 8.83814E+011 
38350 8.75946E+011 
38400 8.68147E+011 
38450 8.60417E+011 
38500 8.52754E+011 
38550 8.45159E+011 
38600 8.37631E+011 
38650 8.30169E+011 
38700 8.22773E+011 
38750 8.15442E+011 
38800 8.08175E+011 
38850 8.00972E+011 
38900 7.93833E+011 
38950 7.86757E+011 
39000 7.79744E+011 
39050 7.72791E+011 
39100 7.65901E+011 
39150 7.59071E+011 
39200 7.52301E+011 
39250 7.45591E+011 
39300 7.3894E+011 
39350 7.32348E+011 
39400 7.25814E+011 
39450 7.19338E+011 
39500 7.12918E+011 
39550 7.06556E+011 
39600 7.0025E+011 
39650 6.93999E+011 
39700 6.87803E+011 
39750 6.81662E+011 
39800 6.75576E+011 
39850 6.69543E+011 
39900 6.63564E+011 
39950 6.57637E+011 
40000 6.51763E+011 
40050 6.4594E+011 
40100 6.40169E+011 
40150 6.34449E+011 
40200 6.2878E+011 
40250 6.23161E+011 
40300 6.17591E+011 
40350 6.12071E+011 
40400 6.066E+011 
40450 6.01177E+011 
40500 5.95802E+011 
40550 5.90475E+011 
40600 5.85194E+011 
40650 5.79961E+011 
40700 5.74774E+011 
40750 5.69632E+011 
40800 5.64536E+011 
40850 5.59486E+011 
40900 5.5448E+011 
40950 5.49518E+011 
41000 5.44601E+011 
41050 5.39727E+011 
41100 5.34896E+011 
41150 5.30108E+011 
41200 5.25362E+011 
41250 5.20659E+011 
41300 5.15997E+011 
41350 5.11377E+011 
41400 5.06797E+011 
41450 5.02259E+011 
41500 4.9776E+011 
41550 4.93301E+011 
41600 4.88882E+011 
41650 4.84502E+011 
41700 4.80161E+011 
41750 4.75859E+011 
41800 4.71595E+011 
41850 4.67368E+011 
41900 4.63179E+011 
41950 4.59028E+011 
42000 4.54913E+011 
42050 4.50834E+011 
42100 4.46792E+011 
42150 4.42786E+011 
42200 4.38816E+011 
42250 4.3488E+011 
42300 4.3098E+011 
42350 4.27114E+011 
42400 4.23283E+011 
42450 4.19486E+011 
42500 4.15723E+011 
42550 4.11993E+011 
42600 4.08296E+011 
42650 4.04632E+011 
42700 4.01E+011 
42750 3.97401E+011 
42800 3.93834E+011 
42850 3.90299E+011 
42900 3.86795E+011 
42950 3.83323E+011 
43000 3.79881E+011 
43050 3.7647E+011 
43100 3.73089E+011 
43150 3.69739E+011 
43200 3.66418E+011 
43250 3.63127E+011 
43300 3.59865E+011 
43350 3.56632E+011 
43400 3.53428E+011 
43450 3.50252E+011 
43500 3.47105E+011 
43550 3.43986E+011 
43600 3.40895E+011 
43650 3.37831E+011 
43700 3.34795E+011 
43750 3.31785E+011 
43800 3.28803E+011 
43850 3.25847E+011 
43900 3.22917E+011 
43950 3.20014E+011 
44000 3.17136E+011 
44050 3.14284E+011 
44100 3.11458E+011 
44150 3.08656E+011 
44200 3.0588E+011 
44250 3.03129E+011 
44300 3.00402E+011 
44350 2.97699E+011 
44400 2.95021E+011 
44450 2.92366E+011 
44500 2.89735E+011 
44550 2.87128E+011 
44600 2.84544E+011 
44650 2.81983E+011 
44700 2.79445E+011 
44750 2.76929E+011 
44800 2.74436E+011 
44850 2.71965E+011 
44900 2.69517E+011 
44950 2.6709E+011 
45000 2.64685E+011 
45050 2.62301E+011 
45100 2.59939E+011 
45150 2.57598E+011 
45200 2.55278E+011 
45250 2.52978E+011 
45300 2.50699E+011 
45350 2.48441E+011 
45400 2.46202E+011 
45450 2.43984E+011 
45500 2.41786E+011 
45550 2.39607E+011 
45600 2.37447E+011 
45650 2.35307E+011 
45700 2.33187E+011 
45750 2.31085E+011 
45800 2.29002E+011 
45850 2.26937E+011 
45900 2.24891E+011 
45950 2.22864E+011 
46000 2.20854E+011 
46050 2.18863E+011 
46100 2.16889E+011 
46150 2.14933E+011 
46200 2.12995E+011 
46250 2.11074E+011 
46300 2.0917E+011 
46350 2.07283E+011 
46400 2.05413E+011 
46450 2.0356E+011 
46500 2.01723E+011 
46550 1.99903E+011 
46600 1.981E+011 
46650 1.96312E+011 
46700 1.9454E+011 
46750 1.92784E+011 
46800 1.91045E+011 
46850 1.8932E+011 
46900 1.87611E+011 
46950 1.85918E+011 
47000 1.84239E+011 
47050 1.82576E+011 
47100 1.80927E+011 
47150 1.79294E+011 
47200 1.77675E+011 
47250 1.7607E+011 
47300 1.7448E+011 
47350 1.72904E+011 
47400 1.71343E+011 
47450 1.69795E+011 
47500 1.68261E+011 
47550 1.66742E+011 
47600 1.65235E+011 
47650 1.63742E+011 
47700 1.62263E+011 
47750 1.60797E+011 
47800 1.59344E+011 
47850 1.57904E+011 
47900 1.56477E+011 
47950 1.55063E+011 
48000 1.53661E+011 
48050 1.52272E+011 
48100 1.50896E+011 
48150 1.49532E+011 
48200 1.4818E+011 
48250 1.4684E+011 
48300 1.45513E+011 
48350 1.44197E+011 
48400 1.42893E+011 
48450 1.41601E+011 
48500 1.40321E+011 
48550 1.39052E+011 
48600 1.37794E+011 
48650 1.36548E+011 
48700 1.35313E+011 
48750 1.34089E+011 
48800 1.32876E+011 
48850 1.31674E+011 
48900 1.30482E+011 
48950 1.29302E+011 
49000 1.28132E+011 
49050 1.26973E+011 
49100 1.25824E+011 
49150 1.24685E+011 
49200 1.23557E+011 
49250 1.22438E+011 
49300 1.2133E+011 
49350 1.20232E+011 
49400 1.19144E+011 
49450 1.18065E+011 
49500 1.16996E+011 
49550 1.15937E+011 
49600 1.14888E+011 
49650 1.13847E+011 
49700 1.12816E+011 
49750 1.11795E+011 
49800 1.10783E+011 
49850 1.09779E+011 
49900 1.08785E+011 
49950 1.078E+011 
50000 1.06824E+011 
50050 1.05856E+011 
50100 1.04897E+011 
50150 1.03947E+011 
50200 1.03005E+011 
50250 1.02072E+011 
50300 1.01147E+011 
50350 1.00231E+011 
50400 9.93228E+010 
50450 9.84228E+010 
50500 9.7531E+010 
50550 9.66471E+010 
50600 9.57712E+010 
50650 9.49033E+010 
50700 9.40432E+010 
50750 9.31908E+010 
50800 9.23461E+010 
50850 9.1509E+010 
50900 9.06794E+010 
50950 8.98574E+010 
51000 8.90427E+010 
51050 8.82355E+010 
51100 8.74355E+010 
51150 8.66427E+010 
51200 8.5857E+010 
51250 8.50785E+010 
51300 8.43069E+010 
51350 8.35424E+010 
51400 8.27847E+010 
51450 8.20339E+010 
51500 8.12898E+010 
51550 8.05525E+010 
51600 7.98218E+010 
51650 7.90977E+010 
51700 7.83802E+010 
51750 7.76691E+010 
51800 7.69644E+010 
51850 7.62662E+010 
51900 7.55742E+010 
51950 7.48884E+010 
52000 7.42089E+010 
52050 7.35355E+010 
52100 7.28682E+010 
52150 7.22069E+010 
52200 7.15515E+010 
52250 7.09021E+010 
52300 7.02586E+010 
52350 6.96208E+010 
52400 6.89889E+010 
52450 6.83626E+010 
52500 6.7742E+010 
52550 6.7127E+010 
52600 6.65176E+010 
52650 6.59137E+010 
52700 6.53152E+010 
52750 6.47221E+010 
52800 6.41344E+010 
52850 6.35521E+010 
52900 6.29749E+010 
52950 6.2403E+010 
53000 6.18363E+010 
53050 6.12747E+010 
53100 6.07181E+010 
53150 6.01667E+010 
53200 5.96201E+010 
53250 5.90786E+010 
53300 5.85419E+010 
53350 5.80101E+010 
53400 5.74831E+010 
53450 5.69608E+010 
53500 5.64433E+010 
53550 5.59304E+010 
53600 5.54223E+010 
53650 5.49187E+010 
53700 5.44196E+010 
53750 5.39251E+010 
53800 5.3435E+010 
53850 5.29494E+010 
53900 5.24682E+010 
53950 5.19913E+010 
54000 5.15187E+010 
54050 5.10505E+010 
54100 5.05864E+010 
54150 5.01266E+010 
54200 4.96709E+010 
54250 4.92194E+010 
54300 4.87719E+010 
54350 4.83285E+010 
54400 4.78891E+010 
54450 4.74537E+010 
54500 4.70222E+010 
54550 4.65946E+010 
54600 4.61709E+010 
54650 4.5751E+010 
54700 4.5335E+010 
54750 4.49227E+010 
54800 4.45141E+010 
54850 4.41093E+010 
54900 4.37081E+010 
54950 4.33105E+010 
55000 4.29166E+010 
55050 4.25262E+010 
55100 4.21393E+010 
55150 4.1756E+010 
55200 4.13761E+010 
55250 4.09997E+010 
55300 4.06267E+010 
55350 4.0257E+010 
55400 3.98908E+010 
55450 3.95278E+010 
55500 3.91681E+010 
55550 3.88117E+010 
55600 3.84585E+010 
55650 3.81085E+010 
55700 3.77617E+010 
55750 3.7418E+010 
55800 3.70775E+010 
55850 3.674E+010 
55900 3.64056E+010 
55950 3.60743E+010 
56000 3.57459E+010 
56050 3.54205E+010 
56100 3.50981E+010 
56150 3.47785E+010 
56200 3.44619E+010 
56250 3.41482E+010 
56300 3.38373E+010 
56350 3.35292E+010 
56400 3.32239E+010 
56450 3.29214E+010 
56500 3.26216E+010 
56550 3.23246E+010 
56600 3.20302E+010 
56650 3.17385E+010 
56700 3.14495E+010 
56750 3.11631E+010 
56800 3.08793E+010 
56850 3.0598E+010 
56900 3.03193E+010 
56950 3.00432E+010 
57000 2.97695E+010 
57050 2.94983E+010 
57100 2.92296E+010 
57150 2.89634E+010 
57200 2.86995E+010 
57250 2.84381E+010 
57300 2.8179E+010 
57350 2.79222E+010 
57400 2.76678E+010 
57450 2.74157E+010 
57500 2.71659E+010 
57550 2.69184E+010 
57600 2.66731E+010 
57650 2.64301E+010 
57700 2.61892E+010 
57750 2.59505E+010 
57800 2.5714E+010 
57850 2.54797E+010 
57900 2.52475E+010 
57950 2.50174E+010 
58000 2.47893E+010 
58050 2.45634E+010 
58100 2.43395E+010 
58150 2.41176E+010 
58200 2.38978E+010 
58250 2.36799E+010 
58300 2.34641E+010 
58350 2.32501E+010 
58400 2.30382E+010 
58450 2.28281E+010 
58500 2.262E+010 
58550 2.24138E+010 
58600 2.22094E+010 
58650 2.20069E+010 
58700 2.18062E+010 
58750 2.16074E+010 
58800 2.14103E+010 
58850 2.12151E+010 
58900 2.10216E+010 
58950 2.08299E+010 
59000 2.064E+010 
59050 2.04517E+010 
59100 2.02652E+010 
59150 2.00803E+010 
59200 1.98972E+010 
59250 1.97157E+010 
59300 1.95359E+010 
59350 1.93577E+010 
59400 1.91811E+010 
59450 1.90061E+010 
59500 1.88327E+010 
59550 1.86609E+010 
59600 1.84907E+010 
59650 1.8322E+010 
59700 1.81548E+010 
59750 1.79891E+010 
59800 1.7825E+010 
59850 1.76624E+010 
59900 1.75012E+010 
59950 1.73415E+010 
60000 1.71833E+010 
60050 1.70265E+010 
60100 1.68711E+010 
60150 1.67171E+010 
60200 1.65645E+010 
60250 1.64134E+010 
60300 1.62636E+010 
60350 1.61151E+010 
60400 1.5968E+010 
60450 1.58223E+010 
60500 1.56779E+010 
60550 1.55348E+010 
60600 1.5393E+010 
60650 1.52524E+010 
60700 1.51132E+010 
60750 1.49752E+010 
60800 1.48385E+010 
60850 1.47031E+010 
60900 1.45688E+010 
60950 1.44358E+010 
61000 1.4304E+010 
61050 1.41734E+010 
61100 1.4044E+010 
61150 1.39158E+010 
61200 1.37887E+010 
61250 1.36628E+010 
61300 1.3538E+010 
61350 1.34144E+010 
61400 1.32919E+010 
61450 1.31705E+010 
61500 1.30502E+010 
61550 1.2931E+010 
61600 1.28129E+010 
61650 1.26959E+010 
61700 1.258E+010 
61750 1.24651E+010 
61800 1.23512E+010 
61850 1.22384E+010 
61900 1.21266E+010 
61950 1.20158E+010 
62000 1.19061E+010 
62050 1.17973E+010 
62100 1.16895E+010 
62150 1.15827E+010 
62200 1.14769E+010 
62250 1.13721E+010 
62300 1.12682E+010 
62350 1.11652E+010 
62400 1.10632E+010 
62450 1.09621E+010 
62500 1.0862E+010 
62550 1.07627E+010 
62600 1.06644E+010 
62650 1.05669E+010 
62700 1.04704E+010 
62750 1.03747E+010 
62800 1.02799E+010 
62850 1.01859E+010 
62900 1.00928E+010 
62950 1.00006E+010 
63000 9.9092E+009 
63050 9.81864E+009 
63100 9.7289E+009 
63150 9.63997E+009 
63200 9.55186E+009 
63250 9.46456E+009 
63300 9.37804E+009 
63350 9.29232E+009 
63400 9.20738E+009 
63450 9.12322E+009 
63500 9.03981E+009 
63550 8.95718E+009 
63600 8.87529E+009 
63650 8.79415E+009 
63700 8.71375E+009 
63750 8.63409E+009 
63800 8.55515E+009 
63850 8.47693E+009 
63900 8.39943E+009 
63950 8.32263E+009 
64000 8.24653E+009 
64050 8.17113E+009 
64100 8.09641E+009 
64150 8.02238E+009 
64200 7.94902E+009 
64250 7.87633E+009 
64300 7.8043E+009 
64350 7.73293E+009 
64400 7.66221E+009 
64450 7.59214E+009 
64500 7.5227E+009 
64550 7.4539E+009 
64600 7.38573E+009 
64650 7.31818E+009 
64700 7.25125E+009 
64750 7.18492E+009 
64800 7.1192E+009 
64850 7.05409E+009 
64900 6.98956E+009 
64950 6.92563E+009 
65000 6.86227E+009 
65050 6.7995E+009 
65100 6.7373E+009 
65150 6.67567E+009 
65200 6.6146E+009 
65250 6.55408E+009 
65300 6.49412E+009 
65350 6.43471E+009 
65400 6.37584E+009 
65450 6.3175E+009 
65500 6.2597E+009 
65550 6.20243E+009 
65600 6.14568E+009 
65650 6.08944E+009 
65700 6.03372E+009 
65750 5.97851E+009 
65800 5.92381E+009 
65850 5.8696E+009 
65900 5.81589E+009 
65950 5.76267E+009 
66000 5.70993E+009 
66050 5.65768E+009 
66100 5.6059E+009 
66150 5.55459E+009 
66200 5.50376E+009 
66250 5.45339E+009 
66300 5.40348E+009 
66350 5.35402E+009 
66400 5.30502E+009 
66450 5.25646E+009 
66500 5.20835E+009 
66550 5.16067E+009 
66600 5.11344E+009 
66650 5.06663E+009 
66700 5.02025E+009 
66750 4.9743E+009 
66800 4.92876E+009 
66850 4.88364E+009 
66900 4.83893E+009 
66950 4.79463E+009 
67000 4.75074E+009 
67050 4.70725E+009 
67100 4.66415E+009 
67150 4.62145E+009 
67200 4.57914E+009 
67250 4.53721E+009 
67300 4.49567E+009 
67350 4.45451E+009 
67400 4.41372E+009 
67450 4.3733E+009 
67500 4.33326E+009 
67550 4.29358E+009 
67600 4.25427E+009 
67650 4.21531E+009 
67700 4.17671E+009 
67750 4.13846E+009 
67800 4.10056E+009 
67850 4.06301E+009 
67900 4.0258E+009 
67950 3.98893E+009 
68000 3.9524E+009 
68050 3.9162E+009 
68100 3.88034E+009 
68150 3.8448E+009 
68200 3.80958E+009 
68250 3.77469E+009 
68300 3.74012E+009 
68350 3.70586E+009 
68400 3.67192E+009 
68450 3.63828E+009 
68500 3.60495E+009 
68550 3.57193E+009 
68600 3.53921E+009 
68650 3.50679E+009 
68700 3.47467E+009 
68750 3.44284E+009 
68800 3.4113E+009 
68850 3.38005E+009 
68900 3.34908E+009 
68950 3.3184E+009 
69000 3.288E+009 
69050 3.25787E+009 
69100 3.22803E+009 
69150 3.19845E+009 
69200 3.16915E+009 
69250 3.14011E+009 
69300 3.11134E+009 
69350 3.08283E+009 
69400 3.05458E+009 
69450 3.02659E+009 
69500 2.99886E+009 
69550 2.97138E+009 
69600 2.94415E+009 
69650 2.91717E+009 
69700 2.89044E+009 
69750 2.86395E+009 
69800 2.83771E+009 
69850 2.8117E+009 
69900 2.78594E+009 
69950 2.7604E+009 
70000 2.73511E+009 
70050 2.71004E+009 
70100 2.6852E+009 
70150 2.66059E+009 
70200 2.63621E+009 
70250 2.61205E+009 
70300 2.5881E+009 
70350 2.56438E+009 
70400 2.54088E+009 
70450 2.51759E+009 
70500 2.49451E+009 
70550 2.47165E+009 
70600 2.44899E+009 
70650 2.42654E+009 
70700 2.4043E+009 
70750 2.38226E+009 
70800 2.36042E+009 
70850 2.33878E+009 
70900 2.31734E+009 
70950 2.2961E+009 
71000 2.27505E+009 
71050 2.25419E+009 
71100 2.23353E+009 
71150 2.21305E+009 
71200 2.19276E+009 
71250 2.17266E+009 
71300 2.15274E+009 
71350 2.133E+009 
71400 2.11344E+009 
71450 2.09406E+009 
71500 2.07486E+009 
71550 2.05584E+009 
71600 2.03699E+009 
71650 2.01831E+009 
71700 1.9998E+009 
71750 1.98147E+009 
71800 1.9633E+009 
71850 1.94529E+009 
71900 1.92745E+009 
71950 1.90978E+009 
72000 1.89227E+009 
72050 1.87491E+009 
72100 1.85772E+009 
72150 1.84068E+009 
72200 1.8238E+009 
72250 1.80707E+009 
72300 1.7905E+009 
72350 1.77408E+009 
72400 1.75781E+009 
72450 1.74169E+009 
72500 1.72571E+009 
72550 1.70989E+009 
72600 1.6942E+009 
72650 1.67866E+009 
72700 1.66327E+009 
72750 1.64801E+009 
72800 1.63289E+009 
72850 1.61792E+009 
72900 1.60308E+009 
72950 1.58837E+009 
73000 1.5738E+009 
73050 1.55936E+009 
73100 1.54506E+009 
73150 1.53089E+009 
73200 1.51684E+009 
73250 1.50293E+009 
73300 1.48914E+009 
73350 1.47548E+009 
73400 1.46194E+009 
73450 1.44853E+009 
73500 1.43524E+009 
73550 1.42207E+009 
73600 1.40903E+009 
73650 1.3961E+009 
73700 1.38329E+009 
73750 1.3706E+009 
73800 1.35802E+009 
73850 1.34556E+009 
73900 1.33322E+009 
73950 1.32098E+009 
74000 1.30886E+009 
74050 1.29685E+009 
74100 1.28496E+009 
74150 1.27316E+009 
74200 1.26148E+009 
74250 1.24991E+009 
74300 1.23844E+009 
74350 1.22707E+009 
74400 1.21581E+009 
74450 1.20465E+009 
74500 1.1936E+009 
74550 1.18265E+009 
74600 1.17179E+009 
74650 1.16104E+009 
74700 1.15038E+009 
74750 1.13983E+009 
74800 1.12937E+009 
74850 1.119E+009 
74900 1.10873E+009 
74950 1.09856E+009 
75000 1.08847E+009 
75050 1.07848E+009 
75100 1.06859E+009 
75150 1.05878E+009 
75200 1.04906E+009 
75250 1.03943E+009 
75300 1.02989E+009 
75350 1.02044E+009 
75400 1.01107E+009 
75450 1.00179E+009 
75500 9.92594E+008 
75550 9.83482E+008 
75600 9.74455E+008 
75650 9.6551E+008 
75700 9.56647E+008 
75750 9.47865E+008 
75800 9.39164E+008 
75850 9.30543E+008 
75900 9.22E+008 
75950 9.13536E+008 
76000 9.0515E+008 
76050 8.9684E+008 
76100 8.88607E+008 
76150 8.80449E+008 
76200 8.72366E+008 
76250 8.64356E+008 
76300 8.56421E+008 
76350 8.48558E+008 
76400 8.40767E+008 
76450 8.33048E+008 
76500 8.25399E+008 
76550 8.17821E+008 
76600 8.10312E+008 
76650 8.02872E+008 
76700 7.955E+008 
76750 7.88196E+008 
76800 7.80959E+008 
76850 7.73788E+008 
76900 7.66683E+008 
76950 7.59643E+008 
77000 7.52668E+008 
77050 7.45756E+008 
77100 7.38908E+008 
77150 7.32123E+008 
77200 7.254E+008 
77250 7.18739E+008 
77300 7.12139E+008 
77350 7.05599E+008 
77400 6.99119E+008 
77450 6.92699E+008 
77500 6.86337E+008 
77550 6.80034E+008 
77600 6.73789E+008 
77650 6.67601E+008 
77700 6.6147E+008 
77750 6.55395E+008 
77800 6.49376E+008 
77850 6.43412E+008 
77900 6.37503E+008 
77950 6.31647E+008 
78000 6.25846E+008 
78050 6.20098E+008 
78100 6.14403E+008 
78150 6.08759E+008 
78200 6.03168E+008 
78250 5.97628E+008 
78300 5.92139E+008 
78350 5.867E+008 
78400 5.81311E+008 
78450 5.75971E+008 
78500 5.7068E+008 
78550 5.65438E+008 
78600 5.60244E+008 
78650 5.55098E+008 
78700 5.49999E+008 
78750 5.44947E+008 
78800 5.39941E+008 
78850 5.34981E+008 
78900 5.30066E+008 
78950 5.25197E+008 
79000 5.20372E+008 
79050 5.15592E+008 
79100 5.10855E+008 
79150 5.06162E+008 
79200 5.01512E+008 
79250 4.96905E+008 
79300 4.92339E+008 
79350 4.87816E+008 
79400 4.83334E+008 
79450 4.78894E+008 
79500 4.74494E+008 
79550 4.70135E+008 
79600 4.65815E+008 
79650 4.61535E+008 
79700 4.57295E+008 
79750 4.53093E+008 
79800 4.4893E+008 
79850 4.44806E+008 
79900 4.40718E+008 
79950 4.36669E+008 
80000 4.32657E+008 
80050 4.28681E+008 
80100 4.24742E+008 
80150 4.20839E+008 
80200 4.16973E+008 
80250 4.13141E+008 
80300 4.09345E+008 
80350 4.05583E+008 
80400 4.01856E+008 
80450 3.98163E+008 
80500 3.94505E+008 
80550 3.90879E+008 
80600 3.87287E+008 
80650 3.83728E+008 
80700 3.80202E+008 
80750 3.76708E+008 
80800 3.73246E+008 
80850 3.69816E+008 
80900 3.66417E+008 
80950 3.6305E+008 
81000 3.59714E+008 
81050 3.56408E+008 
81100 3.53132E+008 
81150 3.49887E+008 
81200 3.46671E+008 
81250 3.43485E+008 
81300 3.40328E+008 
81350 3.372E+008 
81400 3.34101E+008 
81450 3.3103E+008 
81500 3.27988E+008 
81550 3.24973E+008 
81600 3.21986E+008 
81650 3.19027E+008 
81700 3.16094E+008 
81750 3.13189E+008 
81800 3.1031E+008 
81850 3.07458E+008 
81900 3.04632E+008 
81950 3.01832E+008 
82000 2.99057E+008 
82050 2.96308E+008 
82100 2.93585E+008 
82150 2.90886E+008 
82200 2.88212E+008 
82250 2.85563E+008 
82300 2.82938E+008 
82350 2.80337E+008 
82400 2.7776E+008 
82450 2.75206E+008 
82500 2.72677E+008 
82550 2.7017E+008 
82600 2.67686E+008 
82650 2.65225E+008 
82700 2.62787E+008 
82750 2.60371E+008 
82800 2.57978E+008 
82850 2.55606E+008 
82900 2.53256E+008 
82950 2.50928E+008 
83000 2.48621E+008 
83050 2.46335E+008 
83100 2.4407E+008 
83150 2.41826E+008 
83200 2.39603E+008 
83250 2.374E+008 
83300 2.35218E+008 
83350 2.33055E+008 
83400 2.30912E+008 
83450 2.28789E+008 
83500 2.26686E+008 
83550 2.24601E+008 
83600 2.22536E+008 
83650 2.2049E+008 
83700 2.18463E+008 
83750 2.16454E+008 
83800 2.14464E+008 
83850 2.12492E+008 
83900 2.10538E+008 
83950 2.08602E+008 
84000 2.06684E+008 
84050 2.04783E+008 
84100 2.029E+008 
84150 2.01034E+008 
84200 1.99186E+008 
84250 1.97354E+008 
84300 1.9554E+008 
84350 1.93741E+008 
84400 1.9196E+008 
84450 1.90194E+008 
84500 1.88446E+008 
84550 1.86713E+008 
84600 1.84996E+008 
84650 1.83294E+008 
84700 1.81609E+008 
84750 1.79938E+008 
84800 1.78284E+008 
84850 1.76644E+008 
84900 1.7502E+008 
84950 1.7341E+008 
85000 1.71815E+008 
85050 1.70235E+008 
85100 1.6867E+008 
85150 1.67118E+008 
85200 1.65581E+008 
85250 1.64058E+008 
85300 1.6255E+008 
85350 1.61055E+008 
85400 1.59573E+008 
85450 1.58106E+008 
85500 1.56652E+008 
85550 1.55211E+008 
85600 1.53783E+008 
85650 1.52369E+008 
85700 1.50967E+008 
85750 1.49579E+008 
85800 1.48203E+008 
85850 1.4684E+008 
85900 1.45489E+008 
85950 1.44151E+008 
86000 1.42825E+008 
86050 1.41511E+008 
86100 1.4021E+008 
86150 1.3892E+008 
86200 1.37642E+008 
86250 1.36376E+008 
86300 1.35122E+008 
86350 1.33879E+008 
86400 1.32647E+008 
86450 1.31427E+008 
86500 1.30218E+008 
86550 1.2902E+008 
86600 1.27833E+008 
86650 1.26657E+008 
86700 1.25492E+008 
86750 1.24338E+008 
86800 1.23194E+008 
86850 1.22061E+008 
86900 1.20938E+008 
86950 1.19825E+008 
87000 1.18723E+008 
87050 1.17631E+008 
87100 1.16549E+008 
87150 1.15476E+008 
87200 1.14414E+008 
87250 1.13361E+008 
87300 1.12319E+008 
87350 1.11285E+008 
87400 1.10261E+008 
87450 1.09247E+008 
87500 1.08242E+008 
87550 1.07246E+008 
87600 1.06259E+008 
87650 1.05282E+008 
87700 1.04313E+008 
87750 1.03353E+008 
87800 1.02402E+008 
87850 1.0146E+008 
87900 1.00527E+008 
87950 9.96019E+007 
88000 9.86855E+007 
88050 9.77775E+007 
88100 9.68779E+007 
88150 9.59865E+007 
88200 9.51033E+007 
88250 9.42283E+007 
88300 9.33613E+007 
88350 9.25022E+007 
88400 9.16511E+007 
88450 9.08078E+007 
88500 8.99722E+007 
88550 8.91443E+007 
88600 8.83241E+007 
88650 8.75114E+007 
88700 8.67061E+007 
88750 8.59082E+007 
88800 8.51177E+007 
88850 8.43345E+007 
88900 8.35585E+007 
88950 8.27896E+007 
89000 8.20277E+007 
89050 8.12729E+007 
89100 8.0525E+007 
89150 7.9784E+007 
89200 7.90498E+007 
89250 7.83224E+007 
89300 7.76016E+007 
89350 7.68875E+007 
89400 7.61799E+007 
89450 7.54789E+007 
89500 7.47843E+007 
89550 7.40961E+007 
89600 7.34142E+007 
89650 7.27386E+007 
89700 7.20692E+007 
89750 7.14059E+007 
89800 7.07488E+007 
89850 7.00977E+007 
89900 6.94525E+007 
89950 6.88134E+007 
90000 6.818E+007 
90050 6.75526E+007 
90100 6.69309E+007 
90150 6.63149E+007 
90200 6.57045E+007 
90250 6.50998E+007 
90300 6.45007E+007 
90350 6.3907E+007 
90400 6.33189E+007 
90450 6.27361E+007 
90500 6.21587E+007 
90550 6.15866E+007 
90600 6.10197E+007 
90650 6.04581E+007 
90700 5.99017E+007 
90750 5.93503E+007 
90800 5.8804E+007 
90850 5.82628E+007 
90900 5.77265E+007 
90950 5.71952E+007 
91000 5.66688E+007 
91050 5.61472E+007 
91100 5.56304E+007 
91150 5.51183E+007 
91200 5.4611E+007 
91250 5.41083E+007 
91300 5.36102E+007 
91350 5.31168E+007 
91400 5.26278E+007 
91450 5.21434E+007 
91500 5.16634E+007 
91550 5.11879E+007 
91600 5.07167E+007 
91650 5.02498E+007 
91700 4.97873E+007 
91750 4.9329E+007 
91800 4.88749E+007 
91850 4.8425E+007 
91900 4.79792E+007 
91950 4.75375E+007 
92000 4.70999E+007 
92050 4.66664E+007 
92100 4.62368E+007 
92150 4.58111E+007 
92200 4.53894E+007 
92250 4.49716E+007 
92300 4.45576E+007 
92350 4.41474E+007 
92400 4.3741E+007 
92450 4.33383E+007 
92500 4.29393E+007 
92550 4.2544E+007 
92600 4.21523E+007 
92650 4.17643E+007 
92700 4.13798E+007 
92750 4.09988E+007 
92800 4.06214E+007 
92850 4.02474E+007 
92900 3.98769E+007 
92950 3.95098E+007 
93000 3.9146E+007 
93050 3.87856E+007 
93100 3.84285E+007 
93150 3.80747E+007 
93200 3.77242E+007 
93250 3.73769E+007 
93300 3.70327E+007 
93350 3.66918E+007 
93400 3.6354E+007 
93450 3.60193E+007 
93500 3.56876E+007 
93550 3.53591E+007 
93600 3.50335E+007 
93650 3.47109E+007 
93700 3.43913E+007 
93750 3.40747E+007 
93800 3.3761E+007 
93850 3.34501E+007 
93900 3.31421E+007 
93950 3.2837E+007 
94000 3.25346E+007 
94050 3.22351E+007 
94100 3.19383E+007 
94150 3.16442E+007 
94200 3.13528E+007 
94250 3.10641E+007 
94300 3.07781E+007 
94350 3.04947E+007 
94400 3.02139E+007 
94450 2.99357E+007 
94500 2.966E+007 
94550 2.93869E+007 
94600 2.91163E+007 
94650 2.88482E+007 
94700 2.85826E+007 
94750 2.83194E+007 
94800 2.80586E+007 
94850 2.78002E+007 
94900 2.75442E+007 
94950 2.72906E+007 
95000 2.70393E+007 
95050 2.67903E+007 
95100 2.65436E+007 
95150 2.62992E+007 
95200 2.6057E+007 
95250 2.58171E+007 
95300 2.55793E+007 
95350 2.53438E+007 
95400 2.51104E+007 
95450 2.48791E+007 
95500 2.465E+007 
95550 2.4423E+007 
95600 2.41981E+007 
95650 2.39753E+007 
95700 2.37545E+007 
95750 2.35357E+007 
95800 2.3319E+007 
95850 2.31042E+007 
95900 2.28914E+007 
95950 2.26806E+007 
96000 2.24718E+007 
96050 2.22648E+007 
96100 2.20598E+007 
96150 2.18566E+007 
96200 2.16553E+007 
96250 2.14559E+007 
96300 2.12583E+007 
96350 2.10625E+007 
96400 2.08685E+007 
96450 2.06763E+007 
96500 2.04859E+007 
96550 2.02972E+007 
96600 2.01103E+007 
96650 1.99251E+007 
96700 1.97416E+007 
96750 1.95597E+007 
96800 1.93796E+007 
96850 1.92011E+007 
96900 1.90243E+007 
96950 1.8849E+007 
97000 1.86754E+007 
97050 1.85034E+007 
97100 1.8333E+007 
97150 1.81641E+007 
97200 1.79968E+007 
97250 1.78311E+007 
97300 1.76669E+007 
97350 1.75041E+007 
97400 1.73429E+007 
97450 1.71832E+007 
97500 1.70249E+007 
97550 1.68681E+007 
97600 1.67127E+007 
97650 1.65588E+007 
97700 1.64063E+007 
97750 1.62551E+007 
97800 1.61054E+007 
97850 1.59571E+007 
97900 1.58101E+007 
97950 1.56645E+007 
98000 1.55202E+007 
98050 1.53772E+007 
98100 1.52356E+007 
98150 1.50952E+007 
98200 1.49562E+007 
98250 1.48184E+007 
98300 1.46819E+007 
98350 1.45467E+007 
98400 1.44127E+007 
98450 1.42799E+007 
98500 1.41484E+007 
98550 1.40181E+007 
98600 1.38889E+007 
98650 1.3761E+007 
98700 1.36342E+007 
98750 1.35086E+007 
98800 1.33842E+007 
98850 1.32609E+007 
98900 1.31387E+007 
98950 1.30177E+007 
99000 1.28978E+007 
99050 1.2779E+007 
99100 1.26613E+007 
99150 1.25446E+007 
99200 1.24291E+007 
99250 1.23146E+007 
99300 1.22011E+007 
99350 1.20887E+007 
99400 1.19774E+007 
99450 1.1867E+007 
99500 1.17577E+007 
99550 1.16494E+007 
99600 1.15421E+007 
99650 1.14357E+007 
99700 1.13304E+007 
99750 1.1226E+007 
99800 1.11226E+007 
99850 1.10201E+007 
99900 1.09186E+007 
99950 1.0818E+007 
100000 1.07183E+007 
