#F U:\Beamline I20\I20-1_EDE\Wigglers\xop\83mm-small-wiggler\EDE line ranges\0p47T-300mA-0p12x1p0mrad.dat
#C I20EDE 0.47T 300mA 0.12x1.0mrad
#S 1 File written by xplot on Tue Sep 10 16:46:28 2013
#N 2
#L    Energy [eV]  Flux [ph/s/0.1%bw]
50 1.40834E+013 
100 2.22171E+013 
150 2.88766E+013 
200 3.46541E+013 
250 3.97986E+013 
300 4.4446E+013 
350 4.86823E+013 
400 5.25665E+013 
450 5.61419E+013 
500 5.9442E+013 
550 6.24933E+013 
600 6.53177E+013 
650 6.79336E+013 
700 7.03565E+013 
750 7.26002E+013 
800 7.46766E+013 
850 7.65964E+013 
900 7.83692E+013 
950 8.00038E+013 
1000 8.1508E+013 
1050 8.28891E+013 
1100 8.41539E+013 
1150 8.53087E+013 
1200 8.63591E+013 
1250 8.73106E+013 
1300 8.81682E+013 
1350 8.89368E+013 
1400 8.96207E+013 
1450 9.02243E+013 
1500 9.07515E+013 
1550 9.1206E+013 
1600 9.15915E+013 
1650 9.19113E+013 
1700 9.21687E+013 
1750 9.23667E+013 
1800 9.25082E+013 
1850 9.25961E+013 
1900 9.2633E+013 
1950 9.26213E+013 
2000 9.25636E+013 
2050 9.24621E+013 
2100 9.23191E+013 
2150 9.21366E+013 
2200 9.19167E+013 
2250 9.16613E+013 
2300 9.13722E+013 
2350 9.10513E+013 
2400 9.07002E+013 
2450 9.03205E+013 
2500 8.99138E+013 
2550 8.94816E+013 
2600 8.90253E+013 
2650 8.85463E+013 
2700 8.80459E+013 
2750 8.75253E+013 
2800 8.69859E+013 
2850 8.64286E+013 
2900 8.58547E+013 
2950 8.52652E+013 
3000 8.46611E+013 
3050 8.40434E+013 
3100 8.3413E+013 
3150 8.27709E+013 
3200 8.21178E+013 
3250 8.14547E+013 
3300 8.07823E+013 
3350 8.01013E+013 
3400 7.94126E+013 
3450 7.87167E+013 
3500 7.80144E+013 
3550 7.73063E+013 
3600 7.6593E+013 
3650 7.58751E+013 
3700 7.51531E+013 
3750 7.44276E+013 
3800 7.36991E+013 
3850 7.29681E+013 
3900 7.22351E+013 
3950 7.15005E+013 
4000 7.07647E+013 
4050 7.00281E+013 
4100 6.92912E+013 
4150 6.85543E+013 
4200 6.78177E+013 
4250 6.70818E+013 
4300 6.63469E+013 
4350 6.56134E+013 
4400 6.48814E+013 
4450 6.41514E+013 
4500 6.34235E+013 
4550 6.2698E+013 
4600 6.19752E+013 
4650 6.12552E+013 
4700 6.05383E+013 
4750 5.98247E+013 
4800 5.91146E+013 
4850 5.84082E+013 
4900 5.77056E+013 
4950 5.70069E+013 
5000 5.63125E+013 
5050 5.56223E+013 
5100 5.49366E+013 
5150 5.42554E+013 
5200 5.35789E+013 
5250 5.29072E+013 
5300 5.22403E+013 
5350 5.15785E+013 
5400 5.09217E+013 
5450 5.02701E+013 
5500 4.96238E+013 
5550 4.89827E+013 
5600 4.83471E+013 
5650 4.77168E+013 
5700 4.70921E+013 
5750 4.64729E+013 
5800 4.58593E+013 
5850 4.52514E+013 
5900 4.4649E+013 
5950 4.40525E+013 
6000 4.34616E+013 
6050 4.28764E+013 
6100 4.22971E+013 
6150 4.17235E+013 
6200 4.11557E+013 
6250 4.05937E+013 
6300 4.00376E+013 
6350 3.94872E+013 
6400 3.89427E+013 
6450 3.8404E+013 
6500 3.78711E+013 
6550 3.7344E+013 
6600 3.68227E+013 
6650 3.63071E+013 
6700 3.57974E+013 
6750 3.52933E+013 
6800 3.47951E+013 
6850 3.43025E+013 
6900 3.38156E+013 
6950 3.33344E+013 
7000 3.28588E+013 
7050 3.23888E+013 
7100 3.19244E+013 
7150 3.14655E+013 
7200 3.10122E+013 
7250 3.05644E+013 
7300 3.0122E+013 
7350 2.96851E+013 
7400 2.92535E+013 
7450 2.88273E+013 
7500 2.84064E+013 
7550 2.79908E+013 
7600 2.75804E+013 
7650 2.71752E+013 
7700 2.67752E+013 
7750 2.63803E+013 
7800 2.59905E+013 
7850 2.56057E+013 
7900 2.52258E+013 
7950 2.4851E+013 
8000 2.4481E+013 
8050 2.41159E+013 
8100 2.37556E+013 
8150 2.34001E+013 
8200 2.30493E+013 
8250 2.27032E+013 
8300 2.23617E+013 
8350 2.20249E+013 
8400 2.16925E+013 
8450 2.13647E+013 
8500 2.10413E+013 
8550 2.07223E+013 
8600 2.04078E+013 
8650 2.00975E+013 
8700 1.97915E+013 
8750 1.94897E+013 
8800 1.91921E+013 
8850 1.88986E+013 
8900 1.86092E+013 
8950 1.83239E+013 
9000 1.80426E+013 
9050 1.77652E+013 
9100 1.74917E+013 
9150 1.72221E+013 
9200 1.69564E+013 
9250 1.66944E+013 
9300 1.64361E+013 
9350 1.61815E+013 
9400 1.59306E+013 
9450 1.56832E+013 
9500 1.54395E+013 
9550 1.51992E+013 
9600 1.49624E+013 
9650 1.4729E+013 
9700 1.44991E+013 
9750 1.42724E+013 
9800 1.40491E+013 
9850 1.3829E+013 
9900 1.36122E+013 
9950 1.33985E+013 
10000 1.3188E+013 
10050 1.29806E+013 
10100 1.27762E+013 
10150 1.25749E+013 
10200 1.23765E+013 
10250 1.21811E+013 
10300 1.19886E+013 
10350 1.17989E+013 
10400 1.16121E+013 
10450 1.14281E+013 
10500 1.12468E+013 
10550 1.10682E+013 
10600 1.08923E+013 
10650 1.07191E+013 
10700 1.05485E+013 
10750 1.03804E+013 
10800 1.02149E+013 
10850 1.00519E+013 
10900 9.8914E+012 
10950 9.7333E+012 
11000 9.57761E+012 
11050 9.42428E+012 
11100 9.27329E+012 
11150 9.12461E+012 
11200 8.9782E+012 
11250 8.83404E+012 
11300 8.69208E+012 
11350 8.5523E+012 
11400 8.41467E+012 
11450 8.27916E+012 
11500 8.14573E+012 
11550 8.01436E+012 
11600 7.88503E+012 
11650 7.75769E+012 
11700 7.63232E+012 
11750 7.5089E+012 
11800 7.38739E+012 
11850 7.26777E+012 
11900 7.15001E+012 
11950 7.03408E+012 
12000 6.91997E+012 
12050 6.80763E+012 
12100 6.69705E+012 
12150 6.58819E+012 
12200 6.48104E+012 
12250 6.37557E+012 
12300 6.27176E+012 
12350 6.16958E+012 
12400 6.069E+012 
12450 5.97E+012 
12500 5.87257E+012 
12550 5.77666E+012 
12600 5.68228E+012 
12650 5.58938E+012 
12700 5.49795E+012 
12750 5.40797E+012 
12800 5.31942E+012 
12850 5.23227E+012 
12900 5.1465E+012 
12950 5.06209E+012 
13000 4.97903E+012 
13050 4.89728E+012 
13100 4.81684E+012 
13150 4.73768E+012 
13200 4.65978E+012 
13250 4.58312E+012 
13300 4.50769E+012 
13350 4.43347E+012 
13400 4.36043E+012 
13450 4.28856E+012 
13500 4.21785E+012 
13550 4.14826E+012 
13600 4.0798E+012 
13650 4.01243E+012 
13700 3.94615E+012 
13750 3.88093E+012 
13800 3.81676E+012 
13850 3.75363E+012 
13900 3.69151E+012 
13950 3.6304E+012 
14000 3.57027E+012 
14050 3.51111E+012 
14100 3.45291E+012 
14150 3.39565E+012 
14200 3.33931E+012 
14250 3.28389E+012 
14300 3.22936E+012 
14350 3.17572E+012 
14400 3.12295E+012 
14450 3.07104E+012 
14500 3.01997E+012 
14550 2.96973E+012 
14600 2.92031E+012 
14650 2.87169E+012 
14700 2.82386E+012 
14750 2.77681E+012 
14800 2.73053E+012 
14850 2.685E+012 
14900 2.64022E+012 
14950 2.59617E+012 
15000 2.55284E+012 
15050 2.51021E+012 
15100 2.46828E+012 
15150 2.42704E+012 
15200 2.38648E+012 
15250 2.34658E+012 
15300 2.30733E+012 
15350 2.26872E+012 
15400 2.23075E+012 
15450 2.19341E+012 
15500 2.15667E+012 
15550 2.12054E+012 
15600 2.08501E+012 
15650 2.05005E+012 
15700 2.01568E+012 
15750 1.98187E+012 
15800 1.94861E+012 
15850 1.91591E+012 
15900 1.88374E+012 
15950 1.8521E+012 
16000 1.82099E+012 
16050 1.79039E+012 
16100 1.76029E+012 
16150 1.7307E+012 
16200 1.70159E+012 
16250 1.67296E+012 
16300 1.64481E+012 
16350 1.61712E+012 
16400 1.58989E+012 
16450 1.56311E+012 
16500 1.53678E+012 
16550 1.51088E+012 
16600 1.48541E+012 
16650 1.46037E+012 
16700 1.43574E+012 
16750 1.41152E+012 
16800 1.3877E+012 
16850 1.36428E+012 
16900 1.34124E+012 
16950 1.31859E+012 
17000 1.29632E+012 
17050 1.27442E+012 
17100 1.25288E+012 
17150 1.2317E+012 
17200 1.21087E+012 
17250 1.19039E+012 
17300 1.17026E+012 
17350 1.15046E+012 
17400 1.13098E+012 
17450 1.11184E+012 
17500 1.09301E+012 
17550 1.0745E+012 
17600 1.0563E+012 
17650 1.0384E+012 
17700 1.0208E+012 
17750 1.00349E+012 
17800 9.86479E+011 
17850 9.69749E+011 
17900 9.53298E+011 
17950 9.37123E+011 
18000 9.21219E+011 
18050 9.05582E+011 
18100 8.90207E+011 
18150 8.75089E+011 
18200 8.60225E+011 
18250 8.45611E+011 
18300 8.31242E+011 
18350 8.17114E+011 
18400 8.03224E+011 
18450 7.89566E+011 
18500 7.76139E+011 
18550 7.62936E+011 
18600 7.49956E+011 
18650 7.37195E+011 
18700 7.24648E+011 
18750 7.12312E+011 
18800 7.00183E+011 
18850 6.88259E+011 
18900 6.76536E+011 
18950 6.6501E+011 
19000 6.53679E+011 
19050 6.42538E+011 
19100 6.31586E+011 
19150 6.20818E+011 
19200 6.10232E+011 
19250 5.99824E+011 
19300 5.89592E+011 
19350 5.79532E+011 
19400 5.69643E+011 
19450 5.59921E+011 
19500 5.50363E+011 
19550 5.40966E+011 
19600 5.31728E+011 
19650 5.22647E+011 
19700 5.13719E+011 
19750 5.04942E+011 
19800 4.96313E+011 
19850 4.87831E+011 
19900 4.79492E+011 
19950 4.71295E+011 
20000 4.63236E+011 
20050 4.55313E+011 
20100 4.47525E+011 
20150 4.39869E+011 
20200 4.32343E+011 
20250 4.24944E+011 
20300 4.17671E+011 
20350 4.10521E+011 
20400 4.03493E+011 
20450 3.96584E+011 
20500 3.89792E+011 
20550 3.83115E+011 
20600 3.76551E+011 
20650 3.701E+011 
20700 3.63757E+011 
20750 3.57523E+011 
20800 3.51394E+011 
20850 3.4537E+011 
20900 3.39448E+011 
20950 3.33627E+011 
21000 3.27905E+011 
21050 3.2228E+011 
21100 3.1675E+011 
21150 3.11315E+011 
21200 3.05973E+011 
21250 3.00721E+011 
21300 2.95559E+011 
21350 2.90485E+011 
21400 2.85497E+011 
21450 2.80594E+011 
21500 2.75775E+011 
21550 2.71038E+011 
21600 2.66381E+011 
21650 2.61804E+011 
21700 2.57305E+011 
21750 2.52883E+011 
21800 2.48536E+011 
21850 2.44264E+011 
21900 2.40064E+011 
21950 2.35936E+011 
22000 2.31879E+011 
22050 2.2789E+011 
22100 2.2397E+011 
22150 2.20117E+011 
22200 2.1633E+011 
22250 2.12607E+011 
22300 2.08948E+011 
22350 2.05352E+011 
22400 2.01817E+011 
22450 1.98342E+011 
22500 1.94927E+011 
22550 1.9157E+011 
22600 1.88271E+011 
22650 1.85028E+011 
22700 1.81841E+011 
22750 1.78708E+011 
22800 1.75629E+011 
22850 1.72602E+011 
22900 1.69627E+011 
22950 1.66704E+011 
23000 1.6383E+011 
23050 1.61006E+011 
23100 1.58229E+011 
23150 1.55501E+011 
23200 1.52819E+011 
23250 1.50183E+011 
23300 1.47593E+011 
23350 1.45047E+011 
23400 1.42544E+011 
23450 1.40085E+011 
23500 1.37667E+011 
23550 1.35291E+011 
23600 1.32956E+011 
23650 1.30661E+011 
23700 1.28405E+011 
23750 1.26188E+011 
23800 1.24009E+011 
23850 1.21868E+011 
23900 1.19763E+011 
23950 1.17694E+011 
24000 1.15661E+011 
24050 1.13663E+011 
24100 1.11699E+011 
24150 1.09769E+011 
24200 1.07872E+011 
24250 1.06008E+011 
24300 1.04176E+011 
24350 1.02375E+011 
24400 1.00605E+011 
24450 9.88657E+010 
24500 9.71563E+010 
24550 9.54762E+010 
24600 9.3825E+010 
24650 9.22023E+010 
24700 9.06075E+010 
24750 8.90401E+010 
24800 8.74997E+010 
24850 8.59857E+010 
24900 8.44979E+010 
24950 8.30357E+010 
25000 8.15986E+010 
25050 8.01863E+010 
25100 7.87984E+010 
25150 7.74343E+010 
25200 7.60937E+010 
25250 7.47762E+010 
25300 7.34815E+010 
25350 7.2209E+010 
25400 7.09585E+010 
25450 6.97295E+010 
25500 6.85217E+010 
25550 6.73347E+010 
25600 6.61682E+010 
25650 6.50218E+010 
25700 6.38952E+010 
25750 6.2788E+010 
25800 6.16999E+010 
25850 6.06306E+010 
25900 5.95797E+010 
25950 5.8547E+010 
26000 5.75321E+010 
26050 5.65347E+010 
26100 5.55545E+010 
26150 5.45912E+010 
26200 5.36446E+010 
26250 5.27143E+010 
26300 5.18001E+010 
26350 5.09016E+010 
26400 5.00187E+010 
26450 4.9151E+010 
26500 4.82983E+010 
26550 4.74604E+010 
26600 4.66369E+010 
26650 4.58277E+010 
26700 4.50324E+010 
26750 4.42509E+010 
26800 4.34829E+010 
26850 4.27281E+010 
26900 4.19864E+010 
26950 4.12576E+010 
27000 4.05413E+010 
27050 3.98374E+010 
27100 3.91457E+010 
27150 3.8466E+010 
27200 3.7798E+010 
27250 3.71416E+010 
27300 3.64965E+010 
27350 3.58626E+010 
27400 3.52396E+010 
27450 3.46275E+010 
27500 3.40259E+010 
27550 3.34347E+010 
27600 3.28538E+010 
27650 3.22829E+010 
27700 3.17219E+010 
27750 3.11707E+010 
27800 3.0629E+010 
27850 3.00966E+010 
27900 2.95735E+010 
27950 2.90594E+010 
28000 2.85542E+010 
28050 2.80578E+010 
28100 2.757E+010 
28150 2.70906E+010 
28200 2.66196E+010 
28250 2.61567E+010 
28300 2.57018E+010 
28350 2.52548E+010 
28400 2.48156E+010 
28450 2.43839E+010 
28500 2.39598E+010 
28550 2.3543E+010 
28600 2.31334E+010 
28650 2.2731E+010 
28700 2.23355E+010 
28750 2.19468E+010 
28800 2.1565E+010 
28850 2.11897E+010 
28900 2.08209E+010 
28950 2.04586E+010 
29000 2.01025E+010 
29050 1.97526E+010 
29100 1.94088E+010 
29150 1.90709E+010 
29200 1.87389E+010 
29250 1.84127E+010 
29300 1.80921E+010 
29350 1.77771E+010 
29400 1.74675E+010 
29450 1.71634E+010 
29500 1.68645E+010 
29550 1.65708E+010 
29600 1.62822E+010 
29650 1.59986E+010 
29700 1.57199E+010 
29750 1.54461E+010 
29800 1.5177E+010 
29850 1.49126E+010 
29900 1.46528E+010 
29950 1.43975E+010 
30000 1.41467E+010 
30050 1.39002E+010 
30100 1.3658E+010 
30150 1.342E+010 
30200 1.31861E+010 
30250 1.29563E+010 
30300 1.27305E+010 
30350 1.25086E+010 
30400 1.22905E+010 
30450 1.20763E+010 
30500 1.18658E+010 
30550 1.16589E+010 
30600 1.14557E+010 
30650 1.1256E+010 
30700 1.10597E+010 
30750 1.08668E+010 
30800 1.06774E+010 
30850 1.04912E+010 
30900 1.03082E+010 
30950 1.01284E+010 
31000 9.9518E+009 
31050 9.77823E+009 
31100 9.60767E+009 
31150 9.44009E+009 
31200 9.27542E+009 
31250 9.11361E+009 
31300 8.95462E+009 
31350 8.7984E+009 
31400 8.64489E+009 
31450 8.49406E+009 
31500 8.34585E+009 
31550 8.20022E+009 
31600 8.05713E+009 
31650 7.91653E+009 
31700 7.77837E+009 
31750 7.64262E+009 
31800 7.50924E+009 
31850 7.37817E+009 
31900 7.24939E+009 
31950 7.12285E+009 
32000 6.99851E+009 
32050 6.87634E+009 
32100 6.7563E+009 
32150 6.63835E+009 
32200 6.52245E+009 
32250 6.40857E+009 
32300 6.29667E+009 
32350 6.18673E+009 
32400 6.0787E+009 
32450 5.97255E+009 
32500 5.86825E+009 
32550 5.76577E+009 
32600 5.66507E+009 
32650 5.56613E+009 
32700 5.46891E+009 
32750 5.37339E+009 
32800 5.27953E+009 
32850 5.18731E+009 
32900 5.09669E+009 
32950 5.00766E+009 
33000 4.92018E+009 
33050 4.83422E+009 
33100 4.74976E+009 
33150 4.66677E+009 
33200 4.58523E+009 
33250 4.50511E+009 
33300 4.42639E+009 
33350 4.34904E+009 
33400 4.27304E+009 
33450 4.19836E+009 
33500 4.12499E+009 
33550 4.0529E+009 
33600 3.98206E+009 
33650 3.91246E+009 
33700 3.84408E+009 
33750 3.77688E+009 
33800 3.71086E+009 
33850 3.646E+009 
33900 3.58226E+009 
33950 3.51963E+009 
34000 3.4581E+009 
34050 3.39764E+009 
34100 3.33824E+009 
34150 3.27987E+009 
34200 3.22252E+009 
34250 3.16617E+009 
34300 3.11081E+009 
34350 3.05641E+009 
34400 3.00296E+009 
34450 2.95045E+009 
34500 2.89885E+009 
34550 2.84815E+009 
34600 2.79833E+009 
34650 2.74939E+009 
34700 2.7013E+009 
34750 2.65405E+009 
34800 2.60763E+009 
34850 2.56201E+009 
34900 2.5172E+009 
34950 2.47316E+009 
35000 2.42989E+009 
35050 2.38738E+009 
35100 2.34562E+009 
35150 2.30458E+009 
35200 2.26426E+009 
35250 2.22464E+009 
35300 2.18571E+009 
35350 2.14747E+009 
35400 2.10989E+009 
35450 2.07297E+009 
35500 2.03669E+009 
35550 2.00105E+009 
35600 1.96603E+009 
35650 1.93162E+009 
35700 1.89782E+009 
35750 1.8646E+009 
35800 1.83196E+009 
35850 1.7999E+009 
35900 1.76839E+009 
35950 1.73744E+009 
36000 1.70703E+009 
36050 1.67714E+009 
36100 1.64778E+009 
36150 1.61894E+009 
36200 1.59059E+009 
36250 1.56275E+009 
36300 1.53539E+009 
36350 1.5085E+009 
36400 1.48209E+009 
36450 1.45614E+009 
36500 1.43064E+009 
36550 1.4056E+009 
36600 1.38098E+009 
36650 1.3568E+009 
36700 1.33304E+009 
36750 1.30969E+009 
36800 1.28676E+009 
36850 1.26422E+009 
36900 1.24208E+009 
36950 1.22033E+009 
37000 1.19896E+009 
37050 1.17796E+009 
37100 1.15732E+009 
37150 1.13705E+009 
37200 1.11713E+009 
37250 1.09757E+009 
37300 1.07834E+009 
37350 1.05945E+009 
37400 1.04089E+009 
37450 1.02266E+009 
37500 1.00474E+009 
37550 9.87137E+008 
37600 9.69843E+008 
37650 9.52851E+008 
37700 9.36156E+008 
37750 9.19754E+008 
37800 9.03638E+008 
37850 8.87805E+008 
37900 8.72248E+008 
37950 8.56964E+008 
38000 8.41947E+008 
38050 8.27193E+008 
38100 8.12697E+008 
38150 7.98455E+008 
38200 7.84462E+008 
38250 7.70714E+008 
38300 7.57207E+008 
38350 7.43936E+008 
38400 7.30897E+008 
38450 7.18087E+008 
38500 7.05501E+008 
38550 6.93135E+008 
38600 6.80985E+008 
38650 6.69049E+008 
38700 6.57321E+008 
38750 6.45798E+008 
38800 6.34478E+008 
38850 6.23355E+008 
38900 6.12427E+008 
38950 6.01691E+008 
39000 5.91143E+008 
39050 5.80779E+008 
39100 5.70596E+008 
39150 5.60593E+008 
39200 5.50764E+008 
39250 5.41107E+008 
39300 5.31619E+008 
39350 5.22298E+008 
39400 5.1314E+008 
39450 5.04142E+008 
39500 4.95302E+008 
39550 4.86617E+008 
39600 4.78083E+008 
39650 4.69699E+008 
39700 4.61463E+008 
39750 4.5337E+008 
39800 4.45419E+008 
39850 4.37607E+008 
39900 4.29933E+008 
39950 4.22392E+008 
40000 4.14984E+008 
40050 4.07706E+008 
40100 4.00555E+008 
40150 3.93529E+008 
40200 3.86626E+008 
40250 3.79845E+008 
40300 3.73182E+008 
40350 3.66636E+008 
40400 3.60205E+008 
40450 3.53886E+008 
40500 3.47678E+008 
40550 3.41579E+008 
40600 3.35587E+008 
40650 3.29699E+008 
40700 3.23915E+008 
40750 3.18233E+008 
40800 3.12649E+008 
40850 3.07164E+008 
40900 3.01775E+008 
40950 2.9648E+008 
41000 2.91278E+008 
41050 2.86168E+008 
41100 2.81146E+008 
41150 2.76213E+008 
41200 2.71367E+008 
41250 2.66605E+008 
41300 2.61927E+008 
41350 2.5733E+008 
41400 2.52815E+008 
41450 2.48378E+008 
41500 2.4402E+008 
41550 2.39737E+008 
41600 2.3553E+008 
41650 2.31397E+008 
41700 2.27336E+008 
41750 2.23346E+008 
41800 2.19426E+008 
41850 2.15575E+008 
41900 2.11791E+008 
41950 2.08074E+008 
42000 2.04422E+008 
42050 2.00834E+008 
42100 1.97309E+008 
42150 1.93846E+008 
42200 1.90443E+008 
42250 1.871E+008 
42300 1.83816E+008 
42350 1.80589E+008 
42400 1.77419E+008 
42450 1.74305E+008 
42500 1.71245E+008 
42550 1.68239E+008 
42600 1.65285E+008 
42650 1.62384E+008 
42700 1.59533E+008 
42750 1.56732E+008 
42800 1.5398E+008 
42850 1.51277E+008 
42900 1.48621E+008 
42950 1.46012E+008 
43000 1.43448E+008 
43050 1.4093E+008 
43100 1.38455E+008 
43150 1.36024E+008 
43200 1.33636E+008 
43250 1.31289E+008 
43300 1.28984E+008 
43350 1.26719E+008 
43400 1.24494E+008 
43450 1.22308E+008 
43500 1.2016E+008 
43550 1.1805E+008 
43600 1.15977E+008 
43650 1.1394E+008 
43700 1.11939E+008 
43750 1.09973E+008 
43800 1.08042E+008 
43850 1.06145E+008 
43900 1.04281E+008 
43950 1.02449E+008 
44000 1.0065E+008 
44050 9.88822E+007 
44100 9.71455E+007 
44150 9.54393E+007 
44200 9.3763E+007 
44250 9.21162E+007 
44300 9.04982E+007 
44350 8.89087E+007 
44400 8.7347E+007 
44450 8.58128E+007 
44500 8.43055E+007 
44550 8.28246E+007 
44600 8.13698E+007 
44650 7.99404E+007 
44700 7.85362E+007 
44750 7.71566E+007 
44800 7.58012E+007 
44850 7.44696E+007 
44900 7.31614E+007 
44950 7.18762E+007 
45000 7.06135E+007 
45050 6.9373E+007 
45100 6.81542E+007 
45150 6.69569E+007 
45200 6.57805E+007 
45250 6.46249E+007 
45300 6.34895E+007 
45350 6.2374E+007 
45400 6.12781E+007 
45450 6.02015E+007 
45500 5.91438E+007 
45550 5.81046E+007 
45600 5.70837E+007 
45650 5.60807E+007 
45700 5.50954E+007 
45750 5.41273E+007 
45800 5.31762E+007 
45850 5.22418E+007 
45900 5.13239E+007 
45950 5.0422E+007 
46000 4.9536E+007 
46050 4.86655E+007 
46100 4.78104E+007 
46150 4.69702E+007 
46200 4.61448E+007 
46250 4.53339E+007 
46300 4.45373E+007 
46350 4.37546E+007 
46400 4.29857E+007 
46450 4.22302E+007 
46500 4.14881E+007 
46550 4.0759E+007 
46600 4.00426E+007 
46650 3.93389E+007 
46700 3.86475E+007 
46750 3.79683E+007 
46800 3.7301E+007 
46850 3.66454E+007 
46900 3.60013E+007 
46950 3.53686E+007 
47000 3.47469E+007 
47050 3.41362E+007 
47100 3.35362E+007 
47150 3.29468E+007 
47200 3.23677E+007 
47250 3.17988E+007 
47300 3.12398E+007 
47350 3.06907E+007 
47400 3.01512E+007 
47450 2.96213E+007 
47500 2.91006E+007 
47550 2.8589E+007 
47600 2.80865E+007 
47650 2.75928E+007 
47700 2.71077E+007 
47750 2.66312E+007 
47800 2.6163E+007 
47850 2.57031E+007 
47900 2.52513E+007 
47950 2.48074E+007 
48000 2.43713E+007 
48050 2.39428E+007 
48100 2.35219E+007 
48150 2.31084E+007 
48200 2.27021E+007 
48250 2.2303E+007 
48300 2.19109E+007 
48350 2.15257E+007 
48400 2.11472E+007 
48450 2.07754E+007 
48500 2.04102E+007 
48550 2.00513E+007 
48600 1.96988E+007 
48650 1.93524E+007 
48700 1.90122E+007 
48750 1.86779E+007 
48800 1.83495E+007 
48850 1.80268E+007 
48900 1.77099E+007 
48950 1.73985E+007 
49000 1.70926E+007 
49050 1.6792E+007 
49100 1.64967E+007 
49150 1.62067E+007 
49200 1.59217E+007 
49250 1.56417E+007 
49300 1.53667E+007 
49350 1.50965E+007 
49400 1.4831E+007 
49450 1.45702E+007 
49500 1.4314E+007 
49550 1.40623E+007 
49600 1.3815E+007 
49650 1.3572E+007 
49700 1.33334E+007 
49750 1.30989E+007 
49800 1.28685E+007 
49850 1.26422E+007 
49900 1.24199E+007 
49950 1.22015E+007 
50000 1.19869E+007 
50050 1.17761E+007 
50100 1.1569E+007 
50150 1.13655E+007 
50200 1.11656E+007 
50250 1.09693E+007 
50300 1.07763E+007 
50350 1.05868E+007 
50400 1.04006E+007 
50450 1.02177E+007 
50500 1.0038E+007 
50550 9.86142E+006 
50600 9.68798E+006 
50650 9.51758E+006 
50700 9.35018E+006 
50750 9.18572E+006 
50800 9.02416E+006 
50850 8.86543E+006 
50900 8.70949E+006 
50950 8.5563E+006 
51000 8.4058E+006 
51050 8.25795E+006 
51100 8.11269E+006 
51150 7.96999E+006 
51200 7.8298E+006 
51250 7.69207E+006 
51300 7.55676E+006 
51350 7.42384E+006 
51400 7.29325E+006 
51450 7.16495E+006 
51500 7.03892E+006 
51550 6.91509E+006 
51600 6.79345E+006 
51650 6.67394E+006 
51700 6.55654E+006 
51750 6.4412E+006 
51800 6.32789E+006 
51850 6.21657E+006 
51900 6.10721E+006 
51950 5.99977E+006 
52000 5.89422E+006 
52050 5.79053E+006 
52100 5.68866E+006 
52150 5.58858E+006 
52200 5.49026E+006 
52250 5.39367E+006 
52300 5.29878E+006 
52350 5.20556E+006 
52400 5.11398E+006 
52450 5.024E+006 
52500 4.93561E+006 
52550 4.84878E+006 
52600 4.76347E+006 
52650 4.67966E+006 
52700 4.59733E+006 
52750 4.51644E+006 
52800 4.43698E+006 
52850 4.35891E+006 
52900 4.28222E+006 
52950 4.20688E+006 
53000 4.13286E+006 
53050 4.06014E+006 
53100 3.9887E+006 
53150 3.91852E+006 
53200 3.84957E+006 
53250 3.78184E+006 
53300 3.7153E+006 
53350 3.64992E+006 
53400 3.5857E+006 
53450 3.52261E+006 
53500 3.46062E+006 
53550 3.39973E+006 
53600 3.33991E+006 
53650 3.28114E+006 
53700 3.2234E+006 
53750 3.16668E+006 
53800 3.11096E+006 
53850 3.05622E+006 
53900 3.00244E+006 
53950 2.9496E+006 
54000 2.8977E+006 
54050 2.84671E+006 
54100 2.79661E+006 
54150 2.7474E+006 
54200 2.69905E+006 
54250 2.65156E+006 
54300 2.60489E+006 
54350 2.55905E+006 
54400 2.51402E+006 
54450 2.46978E+006 
54500 2.42631E+006 
54550 2.38362E+006 
54600 2.34167E+006 
54650 2.30046E+006 
54700 2.25997E+006 
54750 2.2202E+006 
54800 2.18113E+006 
54850 2.14274E+006 
54900 2.10503E+006 
54950 2.06799E+006 
55000 2.03159E+006 
55050 1.99584E+006 
55100 1.96071E+006 
55150 1.9262E+006 
55200 1.8923E+006 
55250 1.859E+006 
55300 1.82628E+006 
55350 1.79414E+006 
55400 1.76256E+006 
55450 1.73154E+006 
55500 1.70106E+006 
55550 1.67112E+006 
55600 1.64171E+006 
55650 1.61282E+006 
55700 1.58443E+006 
55750 1.55654E+006 
55800 1.52915E+006 
55850 1.50223E+006 
55900 1.47579E+006 
55950 1.44982E+006 
56000 1.4243E+006 
56050 1.39923E+006 
56100 1.3746E+006 
56150 1.3504E+006 
56200 1.32664E+006 
56250 1.30328E+006 
56300 1.28034E+006 
56350 1.25781E+006 
56400 1.23567E+006 
56450 1.21392E+006 
56500 1.19255E+006 
56550 1.17156E+006 
56600 1.15094E+006 
56650 1.13068E+006 
56700 1.11077E+006 
56750 1.09122E+006 
56800 1.07201E+006 
56850 1.05314E+006 
56900 1.0346E+006 
56950 1.01639E+006 
57000 998500 
57050 980923 
57100 963656 
57150 946692 
57200 930027 
57250 913655 
57300 897572 
57350 881771 
57400 866249 
57450 850999 
57500 836018 
57550 821301 
57600 806843 
57650 792639 
57700 778685 
57750 764977 
57800 751510 
57850 738280 
57900 725283 
57950 712514 
58000 699971 
58050 687648 
58100 675542 
58150 663649 
58200 651965 
58250 640487 
58300 629211 
58350 618134 
58400 607251 
58450 596560 
58500 586057 
58550 575740 
58600 565603 
58650 555645 
58700 545863 
58750 536252 
58800 526811 
58850 517536 
58900 508424 
58950 499472 
59000 490679 
59050 482039 
59100 473552 
59150 465215 
59200 457024 
59250 448977 
59300 441072 
59350 433306 
59400 425677 
59450 418182 
59500 410819 
59550 403586 
59600 396480 
59650 389499 
59700 382641 
59750 375903 
59800 369284 
59850 362782 
59900 356394 
59950 350119 
60000 343954 
60050 337898 
60100 331948 
60150 326103 
60200 320361 
60250 314720 
60300 309179 
60350 303734 
60400 298386 
60450 293132 
60500 287970 
60550 282900 
60600 277918 
60650 273024 
60700 268217 
60750 263494 
60800 258854 
60850 254296 
60900 249818 
60950 245419 
61000 241097 
61050 236852 
61100 232681 
61150 228583 
61200 224558 
61250 220604 
61300 216719 
61350 212903 
61400 209154 
61450 205470 
61500 201852 
61550 198297 
61600 194805 
61650 191375 
61700 188005 
61750 184694 
61800 181441 
61850 178246 
61900 175107 
61950 172024 
62000 168994 
62050 166018 
62100 163094 
62150 160222 
62200 157401 
62250 154629 
62300 151905 
62350 149230 
62400 146602 
62450 144020 
62500 141484 
62550 138992 
62600 136544 
62650 134140 
62700 131777 
62750 129457 
62800 127177 
62850 124937 
62900 122737 
62950 120575 
63000 118451 
63050 116365 
63100 114316 
63150 112303 
63200 110325 
63250 108382 
63300 106473 
63350 104598 
63400 102756 
63450 100946 
63500 99167.8 
63550 97421.3 
63600 95705.5 
63650 94019.9 
63700 92363.9 
63750 90737.2 
63800 89139.1 
63850 87569.1 
63900 86026.8 
63950 84511.6 
64000 83023.1 
64050 81560.9 
64100 80124.3 
64150 78713.1 
64200 77326.7 
64250 75964.8 
64300 74626.8 
64350 73312.4 
64400 72021.1 
64450 70752.6 
64500 69506.4 
64550 68282.2 
64600 67079.5 
64650 65898 
64700 64737.3 
64750 63597.1 
64800 62476.9 
64850 61376.4 
64900 60295.4 
64950 59233.4 
65000 58190 
65050 57165.1 
65100 56158.2 
65150 55169 
65200 54197.3 
65250 53242.6 
65300 52304.8 
65350 51383.5 
65400 50478.4 
65450 49589.3 
65500 48715.8 
65550 47857.7 
65600 47014.7 
65650 46186.6 
65700 45373.1 
65750 44573.8 
65800 43788.7 
65850 43017.4 
65900 42259.6 
65950 41515.2 
66000 40784 
66050 40065.6 
66100 39359.8 
66150 38666.5 
66200 37985.4 
66250 37316.3 
66300 36658.9 
66350 36013.2 
66400 35378.8 
66450 34755.6 
66500 34143.4 
66550 33542 
66600 32951.1 
66650 32370.7 
66700 31800.4 
66750 31240.3 
66800 30690 
66850 30149.3 
66900 29618.2 
66950 29096.5 
67000 28583.9 
67050 28080.4 
67100 27585.8 
67150 27099.8 
67200 26622.4 
67250 26153.5 
67300 25692.8 
67350 25240.2 
67400 24795.5 
67450 24358.7 
67500 23929.6 
67550 23508.1 
67600 23093.9 
67650 22687.1 
67700 22287.5 
67750 21894.8 
67800 21509.1 
67850 21130.2 
67900 20758 
67950 20392.3 
68000 20033.1 
68050 19680.2 
68100 19333.5 
68150 18992.9 
68200 18658.3 
68250 18329.6 
68300 18006.7 
68350 17689.5 
68400 17377.8 
68450 17071.7 
68500 16770.9 
68550 16475.5 
68600 16185.3 
68650 15900.1 
68700 15620 
68750 15344.8 
68800 15074.5 
68850 14808.9 
68900 14548 
68950 14291.8 
69000 14040 
69050 13792.6 
69100 13549.6 
69150 13310.9 
69200 13076.4 
69250 12846 
69300 12619.7 
69350 12397.4 
69400 12179 
69450 11964.4 
69500 11753.7 
69550 11546.6 
69600 11343.2 
69650 11143.3 
69700 10947 
69750 10754.1 
69800 10564.7 
69850 10378.5 
69900 10195.7 
69950 10016.1 
70000 9839.61 
70050 9666.26 
70100 9495.96 
70150 9328.66 
70200 9164.31 
70250 9002.85 
70300 8844.24 
70350 8688.42 
70400 8535.35 
70450 8384.97 
70500 8237.24 
70550 8092.12 
70600 7949.55 
70650 7809.49 
70700 7671.9 
70750 7536.73 
70800 7403.95 
70850 7273.5 
70900 7145.35 
70950 7019.46 
71000 6895.79 
71050 6774.3 
71100 6654.94 
71150 6537.69 
71200 6422.51 
71250 6309.35 
71300 6198.19 
71350 6088.98 
71400 5981.7 
71450 5876.31 
71500 5772.78 
71550 5671.07 
71600 5571.15 
71650 5472.99 
71700 5376.56 
71750 5281.83 
71800 5188.77 
71850 5097.35 
71900 5007.54 
71950 4919.31 
72000 4832.64 
72050 4747.49 
72100 4663.85 
72150 4581.67 
72200 4500.95 
72250 4421.64 
72300 4343.74 
72350 4267.2 
72400 4192.02 
72450 4118.16 
72500 4045.6 
72550 3974.32 
72600 3904.29 
72650 3835.5 
72700 3767.92 
72750 3701.53 
72800 3636.31 
72850 3572.24 
72900 3509.3 
72950 3447.47 
73000 3386.72 
73050 3327.05 
73100 3268.43 
73150 3210.84 
73200 3154.26 
73250 3098.69 
73300 3044.09 
73350 2990.45 
73400 2937.76 
73450 2886 
73500 2835.15 
73550 2785.19 
73600 2736.11 
73650 2687.9 
73700 2640.54 
73750 2594.02 
73800 2548.31 
73850 2503.41 
73900 2459.3 
73950 2415.96 
74000 2373.39 
74050 2331.57 
74100 2290.49 
74150 2250.13 
74200 2210.48 
74250 2171.53 
74300 2133.27 
74350 2095.68 
74400 2058.75 
74450 2022.48 
74500 1986.84 
74550 1951.83 
74600 1917.44 
74650 1883.65 
74700 1850.46 
74750 1817.86 
74800 1785.82 
74850 1754.36 
74900 1723.44 
74950 1693.08 
75000 1663.24 
75050 1633.94 
75100 1605.14 
75150 1576.86 
75200 1549.07 
75250 1521.78 
75300 1494.96 
75350 1468.62 
75400 1442.74 
75450 1417.32 
75500 1392.34 
75550 1367.81 
75600 1343.71 
75650 1320.03 
75700 1296.77 
75750 1273.92 
75800 1251.47 
75850 1229.42 
75900 1207.76 
75950 1186.47 
76000 1165.57 
76050 1145.03 
76100 1124.85 
76150 1105.03 
76200 1085.56 
76250 1066.43 
76300 1047.64 
76350 1029.18 
76400 1011.04 
76450 993.225 
76500 975.723 
76550 958.529 
76600 941.639 
76650 925.046 
76700 908.745 
76750 892.731 
76800 877 
76850 861.546 
76900 846.364 
76950 831.45 
77000 816.798 
77050 802.405 
77100 788.265 
77150 774.375 
77200 760.729 
77250 747.324 
77300 734.154 
77350 721.217 
77400 708.508 
77450 696.023 
77500 683.758 
77550 671.709 
77600 659.872 
77650 648.244 
77700 636.82 
77750 625.599 
77800 614.574 
77850 603.744 
77900 593.105 
77950 582.653 
78000 572.386 
78050 562.299 
78100 552.39 
78150 542.656 
78200 533.093 
78250 523.699 
78300 514.47 
78350 505.404 
78400 496.498 
78450 487.749 
78500 479.153 
78550 470.71 
78600 462.415 
78650 454.266 
78700 446.261 
78750 438.397 
78800 430.671 
78850 423.082 
78900 415.626 
78950 408.301 
79000 401.106 
79050 394.038 
79100 387.094 
79150 380.272 
79200 373.571 
79250 366.988 
79300 360.52 
79350 354.167 
79400 347.926 
79450 341.794 
79500 335.771 
79550 329.854 
79600 324.041 
79650 318.331 
79700 312.721 
79750 307.21 
79800 301.796 
79850 296.478 
79900 291.253 
79950 286.12 
80000 281.078 
80050 276.125 
80100 271.258 
80150 266.478 
80200 261.782 
80250 257.169 
80300 252.637 
80350 248.184 
80400 243.811 
80450 239.514 
80500 235.293 
80550 231.147 
80600 227.073 
80650 223.071 
80700 219.14 
80750 215.278 
80800 211.484 
80850 207.757 
80900 204.096 
80950 200.499 
81000 196.966 
81050 193.495 
81100 190.085 
81150 186.735 
81200 183.444 
81250 180.211 
81300 177.035 
81350 173.915 
81400 170.85 
81450 167.839 
81500 164.882 
81550 161.976 
81600 159.121 
81650 156.317 
81700 153.562 
81750 150.856 
81800 148.197 
81850 145.586 
81900 143.02 
81950 140.499 
82000 138.023 
82050 135.591 
82100 133.201 
82150 130.854 
82200 128.548 
82250 126.282 
82300 124.057 
82350 121.87 
82400 119.723 
82450 117.613 
82500 115.54 
82550 113.504 
82600 111.503 
82650 109.538 
82700 107.608 
82750 105.711 
82800 103.848 
82850 102.018 
82900 100.22 
82950 98.454 
83000 96.7189 
83050 95.0144 
83100 93.3399 
83150 91.6949 
83200 90.0789 
83250 88.4913 
83300 86.9318 
83350 85.3997 
83400 83.8947 
83450 82.4161 
83500 80.9636 
83550 79.5367 
83600 78.135 
83650 76.758 
83700 75.4052 
83750 74.0762 
83800 72.7707 
83850 71.4882 
83900 70.2283 
83950 68.9906 
84000 67.7747 
84050 66.5803 
84100 65.4069 
84150 64.2542 
84200 63.1217 
84250 62.0093 
84300 60.9164 
84350 59.8428 
84400 58.7882 
84450 57.7521 
84500 56.7342 
84550 55.7343 
84600 54.7521 
84650 53.7871 
84700 52.8392 
84750 51.9079 
84800 50.9931 
84850 50.0944 
84900 49.2115 
84950 48.3442 
85000 47.4922 
85050 46.6552 
85100 45.8329 
85150 45.0251 
85200 44.2316 
85250 43.452 
85300 42.6862 
85350 41.9339 
85400 41.1949 
85450 40.4688 
85500 39.7556 
85550 39.0549 
85600 38.3666 
85650 37.6904 
85700 37.0262 
85750 36.3736 
85800 35.7325 
85850 35.1028 
85900 34.4841 
85950 33.8763 
86000 33.2793 
86050 32.6928 
86100 32.1166 
86150 31.5505 
86200 30.9945 
86250 30.4482 
86300 29.9116 
86350 29.3844 
86400 28.8665 
86450 28.3577 
86500 27.858 
86550 27.367 
86600 26.8846 
86650 26.4108 
86700 25.9453 
86750 25.4881 
86800 25.0388 
86850 24.5975 
86900 24.164 
86950 23.7381 
87000 23.3198 
87050 22.9088 
87100 22.505 
87150 22.1084 
87200 21.7187 
87250 21.3359 
87300 20.9599 
87350 20.5905 
87400 20.2276 
87450 19.8711 
87500 19.5208 
87550 19.1768 
87600 18.8388 
87650 18.5068 
87700 18.1806 
87750 17.8602 
87800 17.5454 
87850 17.2361 
87900 16.9324 
87950 16.6339 
88000 16.3408 
88050 16.0527 
88100 15.7698 
88150 15.4919 
88200 15.2188 
88250 14.9506 
88300 14.6871 
88350 14.4283 
88400 14.174 
88450 13.9241 
88500 13.6787 
88550 13.4376 
88600 13.2008 
88650 12.9681 
88700 12.7396 
88750 12.515 
88800 12.2945 
88850 12.0778 
88900 11.8649 
88950 11.6558 
89000 11.4503 
89050 11.2485 
89100 11.0503 
89150 10.8555 
89200 10.6642 
89250 10.4762 
89300 10.2916 
89350 10.1102 
89400 9.932 
89450 9.75694 
89500 9.58498 
89550 9.41604 
89600 9.25008 
89650 9.08705 
89700 8.92689 
89750 8.76955 
89800 8.61498 
89850 8.46314 
89900 8.31398 
89950 8.16744 
90000 8.02349 
90050 7.88207 
90100 7.74315 
90150 7.60667 
90200 7.4726 
90250 7.3409 
90300 7.21151 
90350 7.08441 
90400 6.95954 
90450 6.83688 
90500 6.71637 
90550 6.598 
90600 6.48171 
90650 6.36746 
90700 6.25523 
90750 6.14498 
90800 6.03667 
90850 5.93028 
90900 5.82575 
90950 5.72307 
91000 5.6222 
91050 5.52311 
91100 5.42576 
91150 5.33013 
91200 5.23618 
91250 5.14389 
91300 5.05323 
91350 4.96416 
91400 4.87667 
91450 4.79071 
91500 4.70627 
91550 4.62332 
91600 4.54184 
91650 4.46178 
91700 4.38314 
91750 4.30589 
91800 4.22999 
91850 4.15544 
91900 4.0822 
91950 4.01024 
92000 3.93956 
92050 3.87013 
92100 3.80191 
92150 3.7349 
92200 3.66907 
92250 3.6044 
92300 3.54087 
92350 3.47846 
92400 3.41715 
92450 3.35692 
92500 3.29775 
92550 3.23963 
92600 3.18253 
92650 3.12644 
92700 3.07133 
92750 3.01719 
92800 2.96402 
92850 2.91177 
92900 2.86045 
92950 2.81003 
93000 2.7605 
93050 2.71185 
93100 2.66405 
93150 2.61709 
93200 2.57097 
93250 2.52565 
93300 2.48113 
93350 2.4374 
93400 2.39444 
93450 2.35224 
93500 2.31078 
93550 2.27005 
93600 2.23004 
93650 2.19073 
93700 2.15212 
93750 2.11418 
93800 2.07692 
93850 2.04031 
93900 2.00435 
93950 1.96902 
94000 1.93431 
94050 1.90022 
94100 1.86673 
94150 1.83383 
94200 1.8015 
94250 1.76975 
94300 1.73856 
94350 1.70791 
94400 1.67781 
94450 1.64824 
94500 1.61918 
94550 1.59064 
94600 1.56261 
94650 1.53507 
94700 1.50801 
94750 1.48143 
94800 1.45532 
94850 1.42967 
94900 1.40447 
94950 1.37971 
95000 1.35539 
95050 1.3315 
95100 1.30803 
95150 1.28498 
95200 1.26233 
95250 1.24008 
95300 1.21822 
95350 1.19675 
95400 1.17566 
95450 1.15493 
95500 1.13458 
95550 1.11458 
95600 1.09493 
95650 1.07563 
95700 1.05667 
95750 1.03805 
95800 1.01975 
95850 1.00178 
95900 0.98412 
95950 0.966774 
96000 0.949733 
96050 0.932993 
96100 0.916548 
96150 0.900393 
96200 0.884523 
96250 0.868932 
96300 0.853616 
96350 0.83857 
96400 0.823789 
96450 0.809269 
96500 0.795005 
96550 0.780992 
96600 0.767226 
96650 0.753703 
96700 0.740418 
96750 0.727367 
96800 0.714546 
96850 0.701951 
96900 0.689579 
96950 0.677424 
97000 0.665483 
97050 0.653754 
97100 0.64223 
97150 0.63091 
97200 0.61979 
97250 0.608865 
97300 0.598133 
97350 0.58759 
97400 0.577233 
97450 0.567059 
97500 0.557064 
97550 0.547244 
97600 0.537599 
97650 0.528123 
97700 0.518814 
97750 0.509669 
97800 0.500686 
97850 0.49186 
97900 0.483191 
97950 0.474674 
98000 0.466307 
98050 0.458088 
98100 0.450013 
98150 0.442081 
98200 0.434289 
98250 0.426634 
98300 0.419114 
98350 0.411726 
98400 0.404469 
98450 0.39734 
98500 0.390336 
98550 0.383456 
98600 0.376697 
98650 0.370057 
98700 0.363534 
98750 0.357127 
98800 0.350832 
98850 0.344648 
98900 0.338573 
98950 0.332605 
99000 0.326742 
99050 0.320983 
99100 0.315325 
99150 0.309767 
99200 0.304307 
99250 0.298943 
99300 0.293674 
99350 0.288497 
99400 0.283412 
99450 0.278417 
99500 0.273509 
99550 0.268688 
99600 0.263952 
99650 0.2593 
99700 0.254729 
99750 0.250239 
99800 0.245828 
99850 0.241495 
99900 0.237238 
99950 0.233057 
100000 0.228949 
