#F U:\Beamline I20\I20-1_EDE\Wigglers\xop\83mm-small-wiggler\EDE line ranges\0p47T-300mA-0p12x0p8mrad.dat
#C I20EDE 0.47T 300mA 0.12x0.8mrad
#S 1 File written by xplot on Tue Sep 10 16:45:22 2013
#N 2
#L    Energy [eV]  Flux [ph/s/0.1%bw]
50 1.07889E+013 
100 1.7033E+013 
150 2.2159E+013 
200 2.66195E+013 
250 3.06045E+013 
300 3.42173E+013 
350 3.75229E+013 
400 4.05659E+013 
450 4.33789E+013 
500 4.59868E+013 
550 4.84095E+013 
600 5.0663E+013 
650 5.2761E+013 
700 5.4715E+013 
750 5.65349E+013 
800 5.82296E+013 
850 5.98067E+013 
900 6.12734E+013 
950 6.26358E+013 
1000 6.38998E+013 
1050 6.50707E+013 
1100 6.61531E+013 
1150 6.71518E+013 
1200 6.80708E+013 
1250 6.8914E+013 
1300 6.96852E+013 
1350 7.03877E+013 
1400 7.10248E+013 
1450 7.15995E+013 
1500 7.21147E+013 
1550 7.25731E+013 
1600 7.29774E+013 
1650 7.333E+013 
1700 7.36332E+013 
1750 7.38893E+013 
1800 7.41004E+013 
1850 7.42686E+013 
1900 7.43958E+013 
1950 7.44839E+013 
2000 7.45346E+013 
2050 7.45496E+013 
2100 7.45307E+013 
2150 7.44793E+013 
2200 7.43969E+013 
2250 7.42851E+013 
2300 7.41451E+013 
2350 7.39784E+013 
2400 7.37861E+013 
2450 7.35696E+013 
2500 7.33299E+013 
2550 7.30683E+013 
2600 7.27858E+013 
2650 7.24835E+013 
2700 7.21623E+013 
2750 7.18234E+013 
2800 7.14675E+013 
2850 7.10955E+013 
2900 7.07085E+013 
2950 7.03071E+013 
3000 6.98921E+013 
3050 6.94645E+013 
3100 6.90248E+013 
3150 6.85738E+013 
3200 6.81122E+013 
3250 6.76406E+013 
3300 6.71597E+013 
3350 6.66701E+013 
3400 6.61724E+013 
3450 6.56671E+013 
3500 6.51548E+013 
3550 6.46361E+013 
3600 6.41113E+013 
3650 6.3581E+013 
3700 6.30457E+013 
3750 6.25058E+013 
3800 6.19617E+013 
3850 6.14139E+013 
3900 6.08627E+013 
3950 6.03085E+013 
4000 5.97518E+013 
4050 5.91927E+013 
4100 5.86318E+013 
4150 5.80692E+013 
4200 5.75054E+013 
4250 5.69405E+013 
4300 5.63749E+013 
4350 5.58089E+013 
4400 5.52428E+013 
4450 5.46767E+013 
4500 5.41109E+013 
4550 5.35456E+013 
4600 5.29811E+013 
4650 5.24176E+013 
4700 5.18553E+013 
4750 5.12943E+013 
4800 5.07349E+013 
4850 5.01771E+013 
4900 4.96213E+013 
4950 4.90675E+013 
5000 4.85159E+013 
5050 4.79666E+013 
5100 4.74198E+013 
5150 4.68757E+013 
5200 4.63342E+013 
5250 4.57956E+013 
5300 4.52599E+013 
5350 4.47273E+013 
5400 4.41978E+013 
5450 4.36716E+013 
5500 4.31488E+013 
5550 4.26293E+013 
5600 4.21133E+013 
5650 4.1601E+013 
5700 4.10922E+013 
5750 4.05872E+013 
5800 4.00859E+013 
5850 3.95885E+013 
5900 3.90949E+013 
5950 3.86052E+013 
6000 3.81195E+013 
6050 3.76378E+013 
6100 3.71601E+013 
6150 3.66866E+013 
6200 3.62171E+013 
6250 3.57518E+013 
6300 3.52906E+013 
6350 3.48336E+013 
6400 3.43808E+013 
6450 3.39322E+013 
6500 3.34879E+013 
6550 3.30478E+013 
6600 3.2612E+013 
6650 3.21804E+013 
6700 3.17531E+013 
6750 3.13301E+013 
6800 3.09113E+013 
6850 3.04968E+013 
6900 3.00866E+013 
6950 2.96807E+013 
7000 2.9279E+013 
7050 2.88816E+013 
7100 2.84884E+013 
7150 2.80995E+013 
7200 2.77147E+013 
7250 2.73342E+013 
7300 2.69579E+013 
7350 2.65858E+013 
7400 2.62178E+013 
7450 2.5854E+013 
7500 2.54943E+013 
7550 2.51388E+013 
7600 2.47873E+013 
7650 2.44399E+013 
7700 2.40965E+013 
7750 2.37572E+013 
7800 2.34219E+013 
7850 2.30905E+013 
7900 2.27631E+013 
7950 2.24397E+013 
8000 2.21201E+013 
8050 2.18044E+013 
8100 2.14925E+013 
8150 2.11845E+013 
8200 2.08803E+013 
8250 2.05798E+013 
8300 2.02831E+013 
8350 1.999E+013 
8400 1.97007E+013 
8450 1.9415E+013 
8500 1.91329E+013 
8550 1.88543E+013 
8600 1.85794E+013 
8650 1.83079E+013 
8700 1.804E+013 
8750 1.77755E+013 
8800 1.75144E+013 
8850 1.72568E+013 
8900 1.70025E+013 
8950 1.67515E+013 
9000 1.65038E+013 
9050 1.62594E+013 
9100 1.60182E+013 
9150 1.57803E+013 
9200 1.55455E+013 
9250 1.53138E+013 
9300 1.50853E+013 
9350 1.48598E+013 
9400 1.46374E+013 
9450 1.4418E+013 
9500 1.42015E+013 
9550 1.39881E+013 
9600 1.37775E+013 
9650 1.35698E+013 
9700 1.3365E+013 
9750 1.31629E+013 
9800 1.29637E+013 
9850 1.27672E+013 
9900 1.25735E+013 
9950 1.23825E+013 
10000 1.21941E+013 
10050 1.20083E+013 
10100 1.18252E+013 
10150 1.16446E+013 
10200 1.14666E+013 
10250 1.12911E+013 
10300 1.11181E+013 
10350 1.09475E+013 
10400 1.07793E+013 
10450 1.06136E+013 
10500 1.04502E+013 
10550 1.02891E+013 
10600 1.01304E+013 
10650 9.97389E+012 
10700 9.81968E+012 
10750 9.66768E+012 
10800 9.51789E+012 
10850 9.37026E+012 
10900 9.22477E+012 
10950 9.08139E+012 
11000 8.94011E+012 
11050 8.80088E+012 
11100 8.66369E+012 
11150 8.5285E+012 
11200 8.3953E+012 
11250 8.26405E+012 
11300 8.13473E+012 
11350 8.00732E+012 
11400 7.88179E+012 
11450 7.75811E+012 
11500 7.63627E+012 
11550 7.51623E+012 
11600 7.39798E+012 
11650 7.28148E+012 
11700 7.16672E+012 
11750 7.05368E+012 
11800 6.94232E+012 
11850 6.83263E+012 
11900 6.72458E+012 
11950 6.61816E+012 
12000 6.51333E+012 
12050 6.41008E+012 
12100 6.30839E+012 
12150 6.20823E+012 
12200 6.10959E+012 
12250 6.01244E+012 
12300 5.91676E+012 
12350 5.82253E+012 
12400 5.72973E+012 
12450 5.63835E+012 
12500 5.54836E+012 
12550 5.45974E+012 
12600 5.37247E+012 
12650 5.28653E+012 
12700 5.20191E+012 
12750 5.11859E+012 
12800 5.03655E+012 
12850 4.95576E+012 
12900 4.87622E+012 
12950 4.7979E+012 
13000 4.72079E+012 
13050 4.64487E+012 
13100 4.57012E+012 
13150 4.49653E+012 
13200 4.42407E+012 
13250 4.35274E+012 
13300 4.28251E+012 
13350 4.21337E+012 
13400 4.14531E+012 
13450 4.07831E+012 
13500 4.01235E+012 
13550 3.94741E+012 
13600 3.88349E+012 
13650 3.82057E+012 
13700 3.75863E+012 
13750 3.69766E+012 
13800 3.63765E+012 
13850 3.57857E+012 
13900 3.52043E+012 
13950 3.46319E+012 
14000 3.40686E+012 
14050 3.35141E+012 
14100 3.29683E+012 
14150 3.24312E+012 
14200 3.19025E+012 
14250 3.13821E+012 
14300 3.087E+012 
14350 3.0366E+012 
14400 2.98699E+012 
14450 2.93817E+012 
14500 2.89013E+012 
14550 2.84284E+012 
14600 2.79631E+012 
14650 2.75052E+012 
14700 2.70545E+012 
14750 2.6611E+012 
14800 2.61746E+012 
14850 2.57451E+012 
14900 2.53224E+012 
14950 2.49066E+012 
15000 2.44973E+012 
15050 2.40946E+012 
15100 2.36983E+012 
15150 2.33084E+012 
15200 2.29247E+012 
15250 2.25472E+012 
15300 2.21757E+012 
15350 2.18102E+012 
15400 2.14506E+012 
15450 2.10967E+012 
15500 2.07485E+012 
15550 2.04059E+012 
15600 2.00688E+012 
15650 1.97372E+012 
15700 1.94109E+012 
15750 1.90899E+012 
15800 1.87741E+012 
15850 1.84633E+012 
15900 1.81576E+012 
15950 1.78568E+012 
16000 1.75609E+012 
16050 1.72698E+012 
16100 1.69834E+012 
16150 1.67016E+012 
16200 1.64244E+012 
16250 1.61517E+012 
16300 1.58834E+012 
16350 1.56195E+012 
16400 1.53599E+012 
16450 1.51045E+012 
16500 1.48533E+012 
16550 1.46061E+012 
16600 1.4363E+012 
16650 1.41238E+012 
16700 1.38885E+012 
16750 1.36571E+012 
16800 1.34295E+012 
16850 1.32055E+012 
16900 1.29853E+012 
16950 1.27686E+012 
17000 1.25555E+012 
17050 1.23458E+012 
17100 1.21396E+012 
17150 1.19368E+012 
17200 1.17373E+012 
17250 1.1541E+012 
17300 1.1348E+012 
17350 1.11582E+012 
17400 1.09714E+012 
17450 1.07878E+012 
17500 1.06071E+012 
17550 1.04295E+012 
17600 1.02547E+012 
17650 1.00828E+012 
17700 9.91378E+011 
17750 9.74752E+011 
17800 9.584E+011 
17850 9.42317E+011 
17900 9.265E+011 
17950 9.10943E+011 
18000 8.95644E+011 
18050 8.80597E+011 
18100 8.65799E+011 
18150 8.51245E+011 
18200 8.36932E+011 
18250 8.22855E+011 
18300 8.09012E+011 
18350 7.95398E+011 
18400 7.82009E+011 
18450 7.68842E+011 
18500 7.55893E+011 
18550 7.43159E+011 
18600 7.30636E+011 
18650 7.18321E+011 
18700 7.06211E+011 
18750 6.94301E+011 
18800 6.82589E+011 
18850 6.71072E+011 
18900 6.59747E+011 
18950 6.4861E+011 
19000 6.37657E+011 
19050 6.26888E+011 
19100 6.16297E+011 
19150 6.05883E+011 
19200 5.95643E+011 
19250 5.85573E+011 
19300 5.75671E+011 
19350 5.65934E+011 
19400 5.5636E+011 
19450 5.46945E+011 
19500 5.37687E+011 
19550 5.28585E+011 
19600 5.19634E+011 
19650 5.10832E+011 
19700 5.02178E+011 
19750 4.93669E+011 
19800 4.85302E+011 
19850 4.77074E+011 
19900 4.68985E+011 
19950 4.61031E+011 
20000 4.5321E+011 
20050 4.45521E+011 
20100 4.37959E+011 
20150 4.30525E+011 
20200 4.23216E+011 
20250 4.16029E+011 
20300 4.08962E+011 
20350 4.02015E+011 
20400 3.95184E+011 
20450 3.88467E+011 
20500 3.81863E+011 
20550 3.75371E+011 
20600 3.68987E+011 
20650 3.62711E+011 
20700 3.5654E+011 
20750 3.50473E+011 
20800 3.44509E+011 
20850 3.38644E+011 
20900 3.32878E+011 
20950 3.2721E+011 
21000 3.21637E+011 
21050 3.16157E+011 
21100 3.1077E+011 
21150 3.05474E+011 
21200 3.00267E+011 
21250 2.95148E+011 
21300 2.90116E+011 
21350 2.85168E+011 
21400 2.80304E+011 
21450 2.75522E+011 
21500 2.7082E+011 
21550 2.66198E+011 
21600 2.61654E+011 
21650 2.57187E+011 
21700 2.52796E+011 
21750 2.48478E+011 
21800 2.44234E+011 
21850 2.40061E+011 
21900 2.3596E+011 
21950 2.31927E+011 
22000 2.27963E+011 
22050 2.24066E+011 
22100 2.20234E+011 
22150 2.16468E+011 
22200 2.12766E+011 
22250 2.09126E+011 
22300 2.05548E+011 
22350 2.0203E+011 
22400 1.98573E+011 
22450 1.95174E+011 
22500 1.91832E+011 
22550 1.88548E+011 
22600 1.85319E+011 
22650 1.82144E+011 
22700 1.79024E+011 
22750 1.75957E+011 
22800 1.72942E+011 
22850 1.69978E+011 
22900 1.67064E+011 
22950 1.642E+011 
23000 1.61385E+011 
23050 1.58617E+011 
23100 1.55897E+011 
23150 1.53223E+011 
23200 1.50594E+011 
23250 1.4801E+011 
23300 1.4547E+011 
23350 1.42973E+011 
23400 1.40519E+011 
23450 1.38107E+011 
23500 1.35735E+011 
23550 1.33404E+011 
23600 1.31113E+011 
23650 1.28861E+011 
23700 1.26647E+011 
23750 1.24471E+011 
23800 1.22332E+011 
23850 1.2023E+011 
23900 1.18163E+011 
23950 1.16132E+011 
24000 1.14135E+011 
24050 1.12173E+011 
24100 1.10244E+011 
24150 1.08347E+011 
24200 1.06484E+011 
24250 1.04652E+011 
24300 1.02851E+011 
24350 1.01081E+011 
24400 9.93415E+010 
24450 9.76316E+010 
24500 9.59509E+010 
24550 9.4299E+010 
24600 9.26753E+010 
24650 9.10793E+010 
24700 8.95107E+010 
24750 8.79688E+010 
24800 8.64534E+010 
24850 8.49639E+010 
24900 8.34999E+010 
24950 8.2061E+010 
25000 8.06466E+010 
25050 7.92566E+010 
25100 7.78903E+010 
25150 7.65474E+010 
25200 7.52275E+010 
25250 7.39302E+010 
25300 7.26552E+010 
25350 7.1402E+010 
25400 7.01703E+010 
25450 6.89597E+010 
25500 6.77699E+010 
25550 6.66004E+010 
25600 6.5451E+010 
25650 6.43214E+010 
25700 6.32111E+010 
25750 6.21199E+010 
25800 6.10474E+010 
25850 5.99933E+010 
25900 5.89573E+010 
25950 5.79391E+010 
26000 5.69383E+010 
26050 5.59548E+010 
26100 5.49881E+010 
26150 5.40381E+010 
26200 5.31044E+010 
26250 5.21867E+010 
26300 5.12848E+010 
26350 5.03984E+010 
26400 4.95272E+010 
26450 4.8671E+010 
26500 4.78295E+010 
26550 4.70025E+010 
26600 4.61897E+010 
26650 4.53909E+010 
26700 4.46058E+010 
26750 4.38343E+010 
26800 4.3076E+010 
26850 4.23307E+010 
26900 4.15983E+010 
26950 4.08785E+010 
27000 4.01711E+010 
27050 3.94759E+010 
27100 3.87926E+010 
27150 3.81211E+010 
27200 3.74612E+010 
27250 3.68126E+010 
27300 3.61752E+010 
27350 3.55488E+010 
27400 3.49332E+010 
27450 3.43282E+010 
27500 3.37336E+010 
27550 3.31492E+010 
27600 3.2575E+010 
27650 3.20106E+010 
27700 3.1456E+010 
27750 3.09109E+010 
27800 3.03753E+010 
27850 2.98489E+010 
27900 2.93315E+010 
27950 2.88231E+010 
28000 2.83234E+010 
28050 2.78324E+010 
28100 2.73499E+010 
28150 2.68756E+010 
28200 2.64096E+010 
28250 2.59516E+010 
28300 2.55015E+010 
28350 2.50592E+010 
28400 2.46245E+010 
28450 2.41974E+010 
28500 2.37776E+010 
28550 2.3365E+010 
28600 2.29596E+010 
28650 2.25612E+010 
28700 2.21697E+010 
28750 2.17849E+010 
28800 2.14068E+010 
28850 2.10352E+010 
28900 2.06701E+010 
28950 2.03113E+010 
29000 1.99586E+010 
29050 1.96121E+010 
29100 1.92715E+010 
29150 1.89369E+010 
29200 1.8608E+010 
29250 1.82848E+010 
29300 1.79672E+010 
29350 1.76552E+010 
29400 1.73485E+010 
29450 1.70471E+010 
29500 1.67509E+010 
29550 1.64598E+010 
29600 1.61738E+010 
29650 1.58928E+010 
29700 1.56166E+010 
29750 1.53452E+010 
29800 1.50785E+010 
29850 1.48164E+010 
29900 1.45588E+010 
29950 1.43057E+010 
30000 1.4057E+010 
30050 1.38126E+010 
30100 1.35724E+010 
30150 1.33364E+010 
30200 1.31045E+010 
30250 1.28766E+010 
30300 1.26527E+010 
30350 1.24326E+010 
30400 1.22163E+010 
30450 1.20038E+010 
30500 1.1795E+010 
30550 1.15898E+010 
30600 1.13881E+010 
30650 1.119E+010 
30700 1.09953E+010 
30750 1.08039E+010 
30800 1.06159E+010 
30850 1.04312E+010 
30900 1.02496E+010 
30950 1.00712E+010 
31000 9.89591E+009 
31050 9.72364E+009 
31100 9.55436E+009 
31150 9.38802E+009 
31200 9.22457E+009 
31250 9.06395E+009 
31300 8.90612E+009 
31350 8.75103E+009 
31400 8.59863E+009 
31450 8.44888E+009 
31500 8.30173E+009 
31550 8.15713E+009 
31600 8.01505E+009 
31650 7.87543E+009 
31700 7.73823E+009 
31750 7.60342E+009 
31800 7.47095E+009 
31850 7.34078E+009 
31900 7.21287E+009 
31950 7.08718E+009 
32000 6.96368E+009 
32050 6.84232E+009 
32100 6.72308E+009 
32150 6.6059E+009 
32200 6.49076E+009 
32250 6.37762E+009 
32300 6.26645E+009 
32350 6.15721E+009 
32400 6.04987E+009 
32450 5.94439E+009 
32500 5.84075E+009 
32550 5.73891E+009 
32600 5.63884E+009 
32650 5.54051E+009 
32700 5.44389E+009 
32750 5.34896E+009 
32800 5.25567E+009 
32850 5.164E+009 
32900 5.07393E+009 
32950 4.98543E+009 
33000 4.89846E+009 
33050 4.81301E+009 
33100 4.72905E+009 
33150 4.64655E+009 
33200 4.56548E+009 
33250 4.48582E+009 
33300 4.40755E+009 
33350 4.33064E+009 
33400 4.25507E+009 
33450 4.18082E+009 
33500 4.10785E+009 
33550 4.03616E+009 
33600 3.96572E+009 
33650 3.8965E+009 
33700 3.82849E+009 
33750 3.76166E+009 
33800 3.69599E+009 
33850 3.63147E+009 
33900 3.56807E+009 
33950 3.50578E+009 
34000 3.44457E+009 
34050 3.38443E+009 
34100 3.32533E+009 
34150 3.26727E+009 
34200 3.21021E+009 
34250 3.15415E+009 
34300 3.09907E+009 
34350 3.04494E+009 
34400 2.99176E+009 
34450 2.93951E+009 
34500 2.88816E+009 
34550 2.83771E+009 
34600 2.78815E+009 
34650 2.73944E+009 
34700 2.69158E+009 
34750 2.64456E+009 
34800 2.59836E+009 
34850 2.55296E+009 
34900 2.50835E+009 
34950 2.46453E+009 
35000 2.42146E+009 
35050 2.37915E+009 
35100 2.33757E+009 
35150 2.29672E+009 
35200 2.25658E+009 
35250 2.21714E+009 
35300 2.17839E+009 
35350 2.14032E+009 
35400 2.10291E+009 
35450 2.06615E+009 
35500 2.03003E+009 
35550 1.99455E+009 
35600 1.95968E+009 
35650 1.92542E+009 
35700 1.89176E+009 
35750 1.85868E+009 
35800 1.82618E+009 
35850 1.79425E+009 
35900 1.76288E+009 
35950 1.73206E+009 
36000 1.70177E+009 
36050 1.67201E+009 
36100 1.64277E+009 
36150 1.61404E+009 
36200 1.58581E+009 
36250 1.55808E+009 
36300 1.53082E+009 
36350 1.50405E+009 
36400 1.47774E+009 
36450 1.45189E+009 
36500 1.42649E+009 
36550 1.40154E+009 
36600 1.37702E+009 
36650 1.35293E+009 
36700 1.32926E+009 
36750 1.30601E+009 
36800 1.28316E+009 
36850 1.26071E+009 
36900 1.23865E+009 
36950 1.21697E+009 
37000 1.19568E+009 
37050 1.17475E+009 
37100 1.1542E+009 
37150 1.134E+009 
37200 1.11415E+009 
37250 1.09465E+009 
37300 1.0755E+009 
37350 1.05667E+009 
37400 1.03818E+009 
37450 1.02001E+009 
37500 1.00215E+009 
37550 9.8461E+008 
37600 9.67375E+008 
37650 9.5044E+008 
37700 9.33802E+008 
37750 9.17454E+008 
37800 9.01392E+008 
37850 8.85611E+008 
37900 8.70106E+008 
37950 8.54872E+008 
38000 8.39904E+008 
38050 8.25197E+008 
38100 8.10748E+008 
38150 7.96551E+008 
38200 7.82603E+008 
38250 7.68898E+008 
38300 7.55433E+008 
38350 7.42204E+008 
38400 7.29206E+008 
38450 7.16435E+008 
38500 7.03887E+008 
38550 6.91559E+008 
38600 6.79446E+008 
38650 6.67545E+008 
38700 6.55853E+008 
38750 6.44365E+008 
38800 6.33077E+008 
38850 6.21988E+008 
38900 6.11092E+008 
38950 6.00386E+008 
39000 5.89868E+008 
39050 5.79534E+008 
39100 5.69381E+008 
39150 5.59406E+008 
39200 5.49604E+008 
39250 5.39975E+008 
39300 5.30514E+008 
39350 5.21218E+008 
39400 5.12085E+008 
39450 5.03112E+008 
39500 4.94296E+008 
39550 4.85634E+008 
39600 4.77124E+008 
39650 4.68762E+008 
39700 4.60547E+008 
39750 4.52476E+008 
39800 4.44546E+008 
39850 4.36755E+008 
39900 4.291E+008 
39950 4.21579E+008 
40000 4.1419E+008 
40050 4.0693E+008 
40100 3.99797E+008 
40150 3.92789E+008 
40200 3.85904E+008 
40250 3.79139E+008 
40300 3.72493E+008 
40350 3.65963E+008 
40400 3.59547E+008 
40450 3.53244E+008 
40500 3.47051E+008 
40550 3.40966E+008 
40600 3.34988E+008 
40650 3.29115E+008 
40700 3.23344E+008 
40750 3.17675E+008 
40800 3.12105E+008 
40850 3.06632E+008 
40900 3.01256E+008 
40950 2.95973E+008 
41000 2.90783E+008 
41050 2.85684E+008 
41100 2.80674E+008 
41150 2.75752E+008 
41200 2.70916E+008 
41250 2.66165E+008 
41300 2.61497E+008 
41350 2.5691E+008 
41400 2.52405E+008 
41450 2.47978E+008 
41500 2.43628E+008 
41550 2.39355E+008 
41600 2.35157E+008 
41650 2.31032E+008 
41700 2.2698E+008 
41750 2.22998E+008 
41800 2.19086E+008 
41850 2.15243E+008 
41900 2.11467E+008 
41950 2.07758E+008 
42000 2.04113E+008 
42050 2.00532E+008 
42100 1.97014E+008 
42150 1.93558E+008 
42200 1.90162E+008 
42250 1.86826E+008 
42300 1.83548E+008 
42350 1.80327E+008 
42400 1.77163E+008 
42450 1.74055E+008 
42500 1.71001E+008 
42550 1.68E+008 
42600 1.65052E+008 
42650 1.62156E+008 
42700 1.59311E+008 
42750 1.56515E+008 
42800 1.53768E+008 
42850 1.5107E+008 
42900 1.48419E+008 
42950 1.45814E+008 
43000 1.43255E+008 
43050 1.40741E+008 
43100 1.38271E+008 
43150 1.35844E+008 
43200 1.3346E+008 
43250 1.31118E+008 
43300 1.28816E+008 
43350 1.26555E+008 
43400 1.24334E+008 
43450 1.22152E+008 
43500 1.20008E+008 
43550 1.17901E+008 
43600 1.15832E+008 
43650 1.13798E+008 
43700 1.11801E+008 
43750 1.09838E+008 
43800 1.0791E+008 
43850 1.06016E+008 
43900 1.04154E+008 
43950 1.02326E+008 
44000 1.0053E+008 
44050 9.87647E+007 
44100 9.70308E+007 
44150 9.53272E+007 
44200 9.36536E+007 
44250 9.20093E+007 
44300 9.03938E+007 
44350 8.88067E+007 
44400 8.72474E+007 
44450 8.57155E+007 
44500 8.42105E+007 
44550 8.27318E+007 
44600 8.12791E+007 
44650 7.98519E+007 
44700 7.84497E+007 
44750 7.70722E+007 
44800 7.57188E+007 
44850 7.43891E+007 
44900 7.30828E+007 
44950 7.17993E+007 
45000 7.05384E+007 
45050 6.92997E+007 
45100 6.80826E+007 
45150 6.68869E+007 
45200 6.57122E+007 
45250 6.45582E+007 
45300 6.34243E+007 
45350 6.23104E+007 
45400 6.1216E+007 
45450 6.01408E+007 
45500 5.90845E+007 
45550 5.80467E+007 
45600 5.70272E+007 
45650 5.60255E+007 
45700 5.50414E+007 
45750 5.40746E+007 
45800 5.31247E+007 
45850 5.21916E+007 
45900 5.12748E+007 
45950 5.03741E+007 
46000 4.94892E+007 
46050 4.86198E+007 
46100 4.77657E+007 
46150 4.69266E+007 
46200 4.61022E+007 
46250 4.52923E+007 
46300 4.44966E+007 
46350 4.37149E+007 
46400 4.29469E+007 
46450 4.21924E+007 
46500 4.14511E+007 
46550 4.07228E+007 
46600 4.00073E+007 
46650 3.93044E+007 
46700 3.86139E+007 
46750 3.79354E+007 
46800 3.72689E+007 
46850 3.6614E+007 
46900 3.59707E+007 
46950 3.53387E+007 
47000 3.47177E+007 
47050 3.41077E+007 
47100 3.35084E+007 
47150 3.29196E+007 
47200 3.23411E+007 
47250 3.17728E+007 
47300 3.12145E+007 
47350 3.06659E+007 
47400 3.0127E+007 
47450 2.95976E+007 
47500 2.90775E+007 
47550 2.85665E+007 
47600 2.80645E+007 
47650 2.75713E+007 
47700 2.70867E+007 
47750 2.66107E+007 
47800 2.6143E+007 
47850 2.56835E+007 
47900 2.52321E+007 
47950 2.47887E+007 
48000 2.4353E+007 
48050 2.3925E+007 
48100 2.35045E+007 
48150 2.30914E+007 
48200 2.26855E+007 
48250 2.22868E+007 
48300 2.1895E+007 
48350 2.15102E+007 
48400 2.11321E+007 
48450 2.07607E+007 
48500 2.03957E+007 
48550 2.00372E+007 
48600 1.9685E+007 
48650 1.9339E+007 
48700 1.8999E+007 
48750 1.86651E+007 
48800 1.8337E+007 
48850 1.80146E+007 
48900 1.76979E+007 
48950 1.73868E+007 
49000 1.70812E+007 
49050 1.67809E+007 
49100 1.64859E+007 
49150 1.61961E+007 
49200 1.59113E+007 
49250 1.56316E+007 
49300 1.53568E+007 
49350 1.50868E+007 
49400 1.48216E+007 
49450 1.4561E+007 
49500 1.4305E+007 
49550 1.40535E+007 
49600 1.38064E+007 
49650 1.35637E+007 
49700 1.33252E+007 
49750 1.30909E+007 
49800 1.28607E+007 
49850 1.26346E+007 
49900 1.24124E+007 
49950 1.21942E+007 
50000 1.19798E+007 
50050 1.17691E+007 
50100 1.15622E+007 
50150 1.13589E+007 
50200 1.11592E+007 
50250 1.09629E+007 
50300 1.07702E+007 
50350 1.05808E+007 
50400 1.03947E+007 
50450 1.02119E+007 
50500 1.00324E+007 
50550 9.85594E+006 
50600 9.68262E+006 
50650 9.51235E+006 
50700 9.34507E+006 
50750 9.18073E+006 
50800 9.01928E+006 
50850 8.86067E+006 
50900 8.70484E+006 
50950 8.55176E+006 
51000 8.40136E+006 
51050 8.25361E+006 
51100 8.10845E+006 
51150 7.96585E+006 
51200 7.82576E+006 
51250 7.68812E+006 
51300 7.55291E+006 
51350 7.42007E+006 
51400 7.28957E+006 
51450 7.16136E+006 
51500 7.03541E+006 
51550 6.91167E+006 
51600 6.7901E+006 
51650 6.67067E+006 
51700 6.55335E+006 
51750 6.43808E+006 
51800 6.32484E+006 
51850 6.21359E+006 
51900 6.1043E+006 
51950 5.99693E+006 
52000 5.89145E+006 
52050 5.78782E+006 
52100 5.68601E+006 
52150 5.586E+006 
52200 5.48774E+006 
52250 5.39121E+006 
52300 5.29637E+006 
52350 5.20321E+006 
52400 5.11168E+006 
52450 5.02176E+006 
52500 4.93342E+006 
52550 4.84664E+006 
52600 4.76138E+006 
52650 4.67762E+006 
52700 4.59534E+006 
52750 4.5145E+006 
52800 4.43508E+006 
52850 4.35706E+006 
52900 4.28041E+006 
52950 4.2051E+006 
53000 4.13113E+006 
53050 4.05845E+006 
53100 3.98705E+006 
53150 3.91691E+006 
53200 3.848E+006 
53250 3.7803E+006 
53300 3.71379E+006 
53350 3.64846E+006 
53400 3.58427E+006 
53450 3.52121E+006 
53500 3.45926E+006 
53550 3.39839E+006 
53600 3.3386E+006 
53650 3.27986E+006 
53700 3.22216E+006 
53750 3.16547E+006 
53800 3.10977E+006 
53850 3.05506E+006 
53900 3.0013E+006 
53950 2.9485E+006 
54000 2.89662E+006 
54050 2.84565E+006 
54100 2.79558E+006 
54150 2.74639E+006 
54200 2.69807E+006 
54250 2.65059E+006 
54300 2.60396E+006 
54350 2.55814E+006 
54400 2.51312E+006 
54450 2.4689E+006 
54500 2.42546E+006 
54550 2.38278E+006 
54600 2.34085E+006 
54650 2.29966E+006 
54700 2.25919E+006 
54750 2.21944E+006 
54800 2.18039E+006 
54850 2.14202E+006 
54900 2.10432E+006 
54950 2.06729E+006 
55000 2.03091E+006 
55050 1.99518E+006 
55100 1.96007E+006 
55150 1.92557E+006 
55200 1.89169E+006 
55250 1.8584E+006 
55300 1.82569E+006 
55350 1.79356E+006 
55400 1.762E+006 
55450 1.73099E+006 
55500 1.70053E+006 
55550 1.6706E+006 
55600 1.6412E+006 
55650 1.61232E+006 
55700 1.58394E+006 
55750 1.55607E+006 
55800 1.52868E+006 
55850 1.50178E+006 
55900 1.47535E+006 
55950 1.44938E+006 
56000 1.42388E+006 
56050 1.39882E+006 
56100 1.3742E+006 
56150 1.35001E+006 
56200 1.32625E+006 
56250 1.30291E+006 
56300 1.27998E+006 
56350 1.25745E+006 
56400 1.23532E+006 
56450 1.21358E+006 
56500 1.19222E+006 
56550 1.17123E+006 
56600 1.15062E+006 
56650 1.13037E+006 
56700 1.11047E+006 
56750 1.09092E+006 
56800 1.07172E+006 
56850 1.05286E+006 
56900 1.03433E+006 
56950 1.01612E+006 
57000 998236 
57050 980665 
57100 963404 
57150 946446 
57200 929787 
57250 913421 
57300 897343 
57350 881547 
57400 866030 
57450 850786 
57500 835810 
57550 821097 
57600 806644 
57650 792445 
57700 778495 
57750 764791 
57800 751329 
57850 738103 
57900 725110 
57950 712345 
58000 699806 
58050 687487 
58100 675384 
58150 663495 
58200 651815 
58250 640341 
58300 629068 
58350 617994 
58400 607115 
58450 596427 
58500 585927 
58550 575612 
58600 565479 
58650 555524 
58700 545744 
58750 536136 
58800 526698 
58850 517425 
58900 508316 
58950 499367 
59000 490575 
59050 481939 
59100 473454 
59150 465119 
59200 456930 
59250 448885 
59300 440983 
59350 433219 
59400 425592 
59450 418099 
59500 410738 
59550 403506 
59600 396402 
59650 389423 
59700 382566 
59750 375831 
59800 369214 
59850 362713 
59900 356327 
59950 350053 
60000 343890 
60050 337835 
60100 331887 
60150 326043 
60200 320303 
60250 314663 
60300 309123 
60350 303680 
60400 298333 
60450 293080 
60500 287919 
60550 282850 
60600 277870 
60650 272977 
60700 268170 
60750 263448 
60800 258810 
60850 254253 
60900 249776 
60950 245377 
61000 241057 
61050 236812 
61100 232642 
61150 228546 
61200 224521 
61250 220568 
61300 216684 
61350 212868 
61400 209120 
61450 205438 
61500 201820 
61550 198266 
61600 194775 
61650 191345 
61700 187976 
61750 184666 
61800 181414 
61850 178219 
61900 175081 
61950 171998 
62000 168969 
62050 165993 
62100 163070 
62150 160199 
62200 157378 
62250 154606 
62300 151884 
62350 149209 
62400 146581 
62450 144000 
62500 141464 
62550 138973 
62600 136525 
62650 134121 
62700 131759 
62750 129439 
62800 127159 
62850 124920 
62900 122720 
62950 120559 
63000 118436 
63050 116350 
63100 114301 
63150 112288 
63200 110310 
63250 108368 
63300 106459 
63350 104584 
63400 102742 
63450 100933 
63500 99155.4 
63550 97409.1 
63600 95693.6 
63650 94008.2 
63700 92352.6 
63750 90726.1 
63800 89128.2 
63850 87558.5 
63900 86016.4 
63950 84501.5 
64000 83013.3 
64050 81551.2 
64100 80114.9 
64150 78703.9 
64200 77317.8 
64250 75956 
64300 74618.2 
64350 73304 
64400 72013 
64450 70744.6 
64500 69498.6 
64550 68274.6 
64600 67072.1 
64650 65890.7 
64700 64730.2 
64750 63590.1 
64800 62470.1 
64850 61369.8 
64900 60288.9 
64950 59227 
65000 58183.9 
65050 57159.1 
65100 56152.3 
65150 55163.3 
65200 54191.6 
65250 53237.1 
65300 52299.5 
65350 51378.3 
65400 50473.3 
65450 49584.3 
65500 48710.9 
65550 47853 
65600 47010.1 
65650 46182.1 
65700 45368.6 
65750 44569.5 
65800 43784.4 
65850 43013.2 
65900 42255.6 
65950 41511.3 
66000 40780.1 
66050 40061.8 
66100 39356.1 
66150 38662.9 
66200 37981.9 
66250 37312.9 
66300 36655.6 
66350 36009.9 
66400 35375.6 
66450 34752.5 
66500 34140.4 
66550 33539 
66600 32948.2 
66650 32367.8 
66700 31797.7 
66750 31237.6 
66800 30687.3 
66850 30146.8 
66900 29615.7 
66950 29094 
67000 28581.5 
67050 28078.1 
67100 27583.5 
67150 27097.6 
67200 26620.3 
67250 26151.3 
67300 25690.7 
67350 25238.1 
67400 24793.5 
67450 24356.8 
67500 23927.7 
67550 23506.2 
67600 23092.1 
67650 22685.3 
67700 22285.7 
67750 21893.2 
67800 21507.5 
67850 21128.6 
67900 20756.4 
67950 20390.8 
68000 20031.6 
68050 19678.7 
68100 19332 
68150 18991.5 
68200 18656.9 
68250 18328.3 
68300 18005.4 
68350 17688.2 
68400 17376.6 
68450 17070.5 
68500 16769.8 
68550 16474.3 
68600 16184.1 
68650 15899 
68700 15618.9 
68750 15343.8 
68800 15073.5 
68850 14807.9 
68900 14547 
68950 14290.8 
69000 14039 
69050 13791.7 
69100 13548.7 
69150 13310 
69200 13075.6 
69250 12845.2 
69300 12618.9 
69350 12396.6 
69400 12178.2 
69450 11963.7 
69500 11752.9 
69550 11545.8 
69600 11342.5 
69650 11142.6 
69700 10946.3 
69750 10753.5 
69800 10564 
69850 10377.9 
69900 10195.1 
69950 10015.5 
70000 9839.02 
70050 9665.68 
70100 9495.4 
70150 9328.11 
70200 9163.77 
70250 9002.33 
70300 8843.72 
70350 8687.92 
70400 8534.86 
70450 8384.49 
70500 8236.77 
70550 8091.66 
70600 7949.1 
70650 7809.05 
70700 7671.47 
70750 7536.32 
70800 7403.54 
70850 7273.1 
70900 7144.96 
70950 7019.08 
71000 6895.42 
71050 6773.94 
71100 6654.59 
71150 6537.35 
71200 6422.17 
71250 6309.02 
71300 6197.87 
71350 6088.67 
71400 5981.4 
71450 5876.01 
71500 5772.49 
71550 5670.78 
71600 5570.87 
71650 5472.72 
71700 5376.3 
71750 5281.57 
71800 5188.52 
71850 5097.1 
71900 5007.3 
71950 4919.08 
72000 4832.41 
72050 4747.27 
72100 4663.63 
72150 4581.46 
72200 4500.74 
72250 4421.44 
72300 4343.54 
72350 4267.01 
72400 4191.83 
72450 4117.97 
72500 4045.41 
72550 3974.14 
72600 3904.12 
72650 3835.33 
72700 3767.75 
72750 3701.37 
72800 3636.15 
72850 3572.08 
72900 3509.15 
72950 3447.32 
73000 3386.58 
73050 3326.91 
73100 3268.29 
73150 3210.7 
73200 3154.13 
73250 3098.56 
73300 3043.96 
73350 2990.33 
73400 2937.64 
73450 2885.88 
73500 2835.03 
73550 2785.08 
73600 2736 
73650 2687.8 
73700 2640.44 
73750 2593.92 
73800 2548.21 
73850 2503.31 
73900 2459.2 
73950 2415.87 
74000 2373.3 
74050 2331.49 
74100 2290.41 
74150 2250.05 
74200 2210.4 
74250 2171.45 
74300 2133.19 
74350 2095.6 
74400 2058.68 
74450 2022.41 
74500 1986.77 
74550 1951.76 
74600 1917.37 
74650 1883.59 
74700 1850.4 
74750 1817.79 
74800 1785.76 
74850 1754.3 
74900 1723.39 
74950 1693.02 
75000 1663.19 
75050 1633.88 
75100 1605.09 
75150 1576.81 
75200 1549.02 
75250 1521.73 
75300 1494.91 
75350 1468.57 
75400 1442.69 
75450 1417.27 
75500 1392.3 
75550 1367.77 
75600 1343.67 
75650 1319.99 
75700 1296.73 
75750 1273.88 
75800 1251.43 
75850 1229.38 
75900 1207.72 
75950 1186.44 
76000 1165.53 
76050 1144.99 
76100 1124.82 
76150 1105 
76200 1085.53 
76250 1066.4 
76300 1047.61 
76350 1029.15 
76400 1011.01 
76450 993.196 
76500 975.695 
76550 958.502 
76600 941.612 
76650 925.019 
76700 908.719 
76750 892.706 
76800 876.976 
76850 861.522 
76900 846.341 
76950 831.427 
77000 816.776 
77050 802.383 
77100 788.244 
77150 774.354 
77200 760.709 
77250 747.304 
77300 734.135 
77350 721.198 
77400 708.49 
77450 696.005 
77500 683.74 
77550 671.692 
77600 659.855 
77650 648.227 
77700 636.804 
77750 625.583 
77800 614.559 
77850 603.729 
77900 593.09 
77950 582.639 
78000 572.372 
78050 562.286 
78100 552.377 
78150 542.643 
78200 533.081 
78250 523.687 
78300 514.458 
78350 505.392 
78400 496.486 
78450 487.737 
78500 479.142 
78550 470.699 
78600 462.404 
78650 454.255 
78700 446.251 
78750 438.387 
78800 430.661 
78850 423.072 
78900 415.617 
78950 408.293 
79000 401.098 
79050 394.029 
79100 387.086 
79150 380.264 
79200 373.563 
79250 366.98 
79300 360.513 
79350 354.16 
79400 347.919 
79450 341.787 
79500 335.764 
79550 329.847 
79600 324.034 
79650 318.324 
79700 312.715 
79750 307.204 
79800 301.79 
79850 296.472 
79900 291.247 
79950 286.115 
80000 281.072 
80050 276.119 
80100 271.253 
80150 266.473 
80200 261.777 
80250 257.164 
80300 252.632 
80350 248.18 
80400 243.806 
80450 239.51 
80500 235.289 
80550 231.142 
80600 227.069 
80650 223.067 
80700 219.136 
80750 215.274 
80800 211.481 
80850 207.754 
80900 204.092 
80950 200.496 
81000 196.962 
81050 193.491 
81100 190.081 
81150 186.732 
81200 183.441 
81250 180.208 
81300 177.032 
81350 173.912 
81400 170.848 
81450 167.837 
81500 164.879 
81550 161.973 
81600 159.119 
81650 156.314 
81700 153.56 
81750 150.854 
81800 148.195 
81850 145.583 
81900 143.018 
81950 140.497 
82000 138.021 
82050 135.589 
82100 133.199 
82150 130.852 
82200 128.546 
82250 126.28 
82300 124.055 
82350 121.869 
82400 119.721 
82450 117.611 
82500 115.538 
82550 113.502 
82600 111.502 
82650 109.537 
82700 107.606 
82750 105.71 
82800 103.847 
82850 102.017 
82900 100.219 
82950 98.4527 
83000 96.7176 
83050 95.0131 
83100 93.3386 
83150 91.6936 
83200 90.0776 
83250 88.4901 
83300 86.9306 
83350 85.3986 
83400 83.8935 
83450 82.415 
83500 80.9626 
83550 79.5357 
83600 78.134 
83650 76.757 
83700 75.4042 
83750 74.0753 
83800 72.7698 
83850 71.4873 
83900 70.2274 
83950 68.9898 
84000 67.7739 
84050 66.5795 
84100 65.4061 
84150 64.2534 
84200 63.121 
84250 62.0085 
84300 60.9157 
84350 59.8421 
84400 58.7874 
84450 57.7514 
84500 56.7336 
84550 55.7337 
84600 54.7514 
84650 53.7865 
84700 52.8386 
84750 51.9073 
84800 50.9925 
84850 50.0938 
84900 49.211 
84950 48.3437 
85000 47.4916 
85050 46.6547 
85100 45.8324 
85150 45.0246 
85200 44.2311 
85250 43.4516 
85300 42.6858 
85350 41.9335 
85400 41.1944 
85450 40.4684 
85500 39.7552 
85550 39.0545 
85600 38.3662 
85650 37.69 
85700 37.0258 
85750 36.3732 
85800 35.7322 
85850 35.1024 
85900 34.4838 
85950 33.876 
86000 33.279 
86050 32.6924 
86100 32.1162 
86150 31.5502 
86200 30.9942 
86250 30.4479 
86300 29.9113 
86350 29.3841 
86400 28.8662 
86450 28.3575 
86500 27.8577 
86550 27.3667 
86600 26.8844 
86650 26.4106 
86700 25.9451 
86750 25.4878 
86800 25.0386 
86850 24.5973 
86900 24.1638 
86950 23.7379 
87000 23.3195 
87050 22.9086 
87100 22.5048 
87150 22.1082 
87200 21.7185 
87250 21.3357 
87300 20.9597 
87350 20.5903 
87400 20.2274 
87450 19.8709 
87500 19.5207 
87550 19.1766 
87600 18.8386 
87650 18.5066 
87700 18.1804 
87750 17.86 
87800 17.5452 
87850 17.236 
87900 16.9322 
87950 16.6338 
88000 16.3406 
88050 16.0526 
88100 15.7697 
88150 15.4918 
88200 15.2187 
88250 14.9505 
88300 14.687 
88350 14.4281 
88400 14.1738 
88450 13.924 
88500 13.6786 
88550 13.4375 
88600 13.2007 
88650 12.968 
88700 12.7395 
88750 12.5149 
88800 12.2944 
88850 12.0777 
88900 11.8648 
88950 11.6557 
89000 11.4503 
89050 11.2485 
89100 11.0502 
89150 10.8554 
89200 10.6641 
89250 10.4761 
89300 10.2915 
89350 10.1101 
89400 9.93193 
89450 9.75688 
89500 9.58491 
89550 9.41598 
89600 9.25002 
89650 9.08699 
89700 8.92683 
89750 8.76949 
89800 8.61493 
89850 8.46309 
89900 8.31392 
89950 8.16739 
90000 8.02344 
90050 7.88202 
90100 7.7431 
90150 7.60663 
90200 7.47256 
90250 7.34085 
90300 7.21147 
90350 7.08436 
90400 6.9595 
90450 6.83684 
90500 6.71633 
90550 6.59796 
90600 6.48167 
90650 6.36742 
90700 6.2552 
90750 6.14495 
90800 6.03664 
90850 5.93024 
90900 5.82572 
90950 5.72304 
91000 5.62217 
91050 5.52308 
91100 5.42573 
91150 5.3301 
91200 5.23615 
91250 5.14386 
91300 5.0532 
91350 4.96414 
91400 4.87664 
91450 4.79069 
91500 4.70625 
91550 4.6233 
91600 4.54181 
91650 4.46176 
91700 4.38312 
91750 4.30586 
91800 4.22997 
91850 4.15542 
91900 4.08217 
91950 4.01022 
92000 3.93954 
92050 3.87011 
92100 3.80189 
92150 3.73488 
92200 3.66905 
92250 3.60438 
92300 3.54085 
92350 3.47845 
92400 3.41714 
92450 3.35691 
92500 3.29774 
92550 3.23961 
92600 3.18251 
92650 3.12642 
92700 3.07132 
92750 3.01718 
92800 2.964 
92850 2.91176 
92900 2.86044 
92950 2.81002 
93000 2.76049 
93050 2.71183 
93100 2.66404 
93150 2.61708 
93200 2.57095 
93250 2.52564 
93300 2.48112 
93350 2.43739 
93400 2.39443 
93450 2.35223 
93500 2.31077 
93550 2.27004 
93600 2.23003 
93650 2.19072 
93700 2.15211 
93750 2.11418 
93800 2.07691 
93850 2.0403 
93900 2.00434 
93950 1.96901 
94000 1.93431 
94050 1.90021 
94100 1.86672 
94150 1.83382 
94200 1.8015 
94250 1.76974 
94300 1.73855 
94350 1.70791 
94400 1.6778 
94450 1.64823 
94500 1.61918 
94550 1.59064 
94600 1.5626 
94650 1.53506 
94700 1.508 
94750 1.48142 
94800 1.45531 
94850 1.42966 
94900 1.40446 
94950 1.37971 
95000 1.35539 
95050 1.3315 
95100 1.30803 
95150 1.28497 
95200 1.26232 
95250 1.24007 
95300 1.21822 
95350 1.19675 
95400 1.17565 
95450 1.15493 
95500 1.13457 
95550 1.11457 
95600 1.09493 
95650 1.07563 
95700 1.05667 
95750 1.03805 
95800 1.01975 
95850 1.00177 
95900 0.984117 
95950 0.966771 
96000 0.94973 
96050 0.93299 
96100 0.916545 
96150 0.90039 
96200 0.88452 
96250 0.868929 
96300 0.853613 
96350 0.838567 
96400 0.823787 
96450 0.809266 
96500 0.795002 
96550 0.780989 
96600 0.767223 
96650 0.7537 
96700 0.740415 
96750 0.727365 
96800 0.714544 
96850 0.701949 
96900 0.689577 
96950 0.677422 
97000 0.665482 
97050 0.653752 
97100 0.642228 
97150 0.630908 
97200 0.619788 
97250 0.608863 
97300 0.598131 
97350 0.587588 
97400 0.577232 
97450 0.567057 
97500 0.557062 
97550 0.547243 
97600 0.537597 
97650 0.528121 
97700 0.518812 
97750 0.509668 
97800 0.500684 
97850 0.491859 
97900 0.483189 
97950 0.474672 
98000 0.466306 
98050 0.458086 
98100 0.450012 
98150 0.44208 
98200 0.434288 
98250 0.426633 
98300 0.419113 
98350 0.411725 
98400 0.404468 
98450 0.397339 
98500 0.390335 
98550 0.383455 
98600 0.376696 
98650 0.370056 
98700 0.363533 
98750 0.357126 
98800 0.350831 
98850 0.344647 
98900 0.338572 
98950 0.332604 
99000 0.326742 
99050 0.320982 
99100 0.315324 
99150 0.309767 
99200 0.304306 
99250 0.298943 
99300 0.293673 
99350 0.288497 
99400 0.283412 
99450 0.278416 
99500 0.273509 
99550 0.268688 
99600 0.263952 
99650 0.259299 
99700 0.254728 
99750 0.250239 
99800 0.245828 
99850 0.241495 
99900 0.237238 
99950 0.233056 
100000 0.228948 
