#F U:\Beamline I20\I20-1_EDE\Wigglers\xop\83mm-small-wiggler\EDE line ranges\0p74T-300mA-0p12x1.6mrad.dat
#C I20EDE 0.74T 300mA 0.12x1.6mrad
#S 1 File written by xplot on Tue Sep 10 16:43:29 2013
#N 2
#L    Energy [eV]  Flux [ph/s/0.1%bw]
50 1.67295E+013 
100 2.64774E+013 
150 3.4551E+013 
200 4.16487E+013 
250 4.80614E+013 
300 5.39465E+013 
350 5.94019E+013 
400 6.44939E+013 
450 6.92703E+013 
500 7.37672E+013 
550 7.80129E+013 
600 8.20302E+013 
650 8.58376E+013 
700 8.94511E+013 
750 9.2884E+013 
800 9.61479E+013 
850 9.92529E+013 
900 1.02208E+014 
950 1.05022E+014 
1000 1.07701E+014 
1050 1.10252E+014 
1100 1.12681E+014 
1150 1.14993E+014 
1200 1.17194E+014 
1250 1.19289E+014 
1300 1.21281E+014 
1350 1.23175E+014 
1400 1.24975E+014 
1450 1.26684E+014 
1500 1.28305E+014 
1550 1.29843E+014 
1600 1.31299E+014 
1650 1.32677E+014 
1700 1.33979E+014 
1750 1.35209E+014 
1800 1.36368E+014 
1850 1.37459E+014 
1900 1.38485E+014 
1950 1.39447E+014 
2000 1.40348E+014 
2050 1.41189E+014 
2100 1.41972E+014 
2150 1.427E+014 
2200 1.43375E+014 
2250 1.43997E+014 
2300 1.44569E+014 
2350 1.45092E+014 
2400 1.45567E+014 
2450 1.45997E+014 
2500 1.46383E+014 
2550 1.46726E+014 
2600 1.47027E+014 
2650 1.47288E+014 
2700 1.4751E+014 
2750 1.47695E+014 
2800 1.47843E+014 
2850 1.47955E+014 
2900 1.48034E+014 
2950 1.48079E+014 
3000 1.48092E+014 
3050 1.48074E+014 
3100 1.48026E+014 
3150 1.47949E+014 
3200 1.47844E+014 
3250 1.47712E+014 
3300 1.47553E+014 
3350 1.47369E+014 
3400 1.4716E+014 
3450 1.46928E+014 
3500 1.46672E+014 
3550 1.46394E+014 
3600 1.46095E+014 
3650 1.45775E+014 
3700 1.45435E+014 
3750 1.45076E+014 
3800 1.44698E+014 
3850 1.44302E+014 
3900 1.43888E+014 
3950 1.43458E+014 
4000 1.43011E+014 
4050 1.42549E+014 
4100 1.42073E+014 
4150 1.41581E+014 
4200 1.41076E+014 
4250 1.40557E+014 
4300 1.40025E+014 
4350 1.39482E+014 
4400 1.38926E+014 
4450 1.38359E+014 
4500 1.3778E+014 
4550 1.37192E+014 
4600 1.36593E+014 
4650 1.35985E+014 
4700 1.35367E+014 
4750 1.34741E+014 
4800 1.34106E+014 
4850 1.33463E+014 
4900 1.32812E+014 
4950 1.32154E+014 
5000 1.3149E+014 
5050 1.30818E+014 
5100 1.3014E+014 
5150 1.29457E+014 
5200 1.28767E+014 
5250 1.28073E+014 
5300 1.27373E+014 
5350 1.26668E+014 
5400 1.25959E+014 
5450 1.25246E+014 
5500 1.24529E+014 
5550 1.23808E+014 
5600 1.23084E+014 
5650 1.22356E+014 
5700 1.21626E+014 
5750 1.20893E+014 
5800 1.20157E+014 
5850 1.19419E+014 
5900 1.1868E+014 
5950 1.17938E+014 
6000 1.17194E+014 
6050 1.1645E+014 
6100 1.15704E+014 
6150 1.14957E+014 
6200 1.14208E+014 
6250 1.1346E+014 
6300 1.12711E+014 
6350 1.11961E+014 
6400 1.11211E+014 
6450 1.10461E+014 
6500 1.09711E+014 
6550 1.08961E+014 
6600 1.08212E+014 
6650 1.07463E+014 
6700 1.06715E+014 
6750 1.05968E+014 
6800 1.05221E+014 
6850 1.04476E+014 
6900 1.03732E+014 
6950 1.02989E+014 
7000 1.02247E+014 
7050 1.01507E+014 
7100 1.00768E+014 
7150 1.00031E+014 
7200 9.92953E+013 
7250 9.85619E+013 
7300 9.78303E+013 
7350 9.71008E+013 
7400 9.63734E+013 
7450 9.56482E+013 
7500 9.49253E+013 
7550 9.42046E+013 
7600 9.34864E+013 
7650 9.27707E+013 
7700 9.20576E+013 
7750 9.13471E+013 
7800 9.06392E+013 
7850 8.99341E+013 
7900 8.92318E+013 
7950 8.85324E+013 
8000 8.78358E+013 
8050 8.71423E+013 
8100 8.64517E+013 
8150 8.57642E+013 
8200 8.50798E+013 
8250 8.43985E+013 
8300 8.37204E+013 
8350 8.30456E+013 
8400 8.2374E+013 
8450 8.17057E+013 
8500 8.10408E+013 
8550 8.03792E+013 
8600 7.9721E+013 
8650 7.90663E+013 
8700 7.8415E+013 
8750 7.77672E+013 
8800 7.71229E+013 
8850 7.64822E+013 
8900 7.5845E+013 
8950 7.52114E+013 
9000 7.45814E+013 
9050 7.39549E+013 
9100 7.33322E+013 
9150 7.2713E+013 
9200 7.20976E+013 
9250 7.14858E+013 
9300 7.08777E+013 
9350 7.02733E+013 
9400 6.96727E+013 
9450 6.90757E+013 
9500 6.84825E+013 
9550 6.7893E+013 
9600 6.73073E+013 
9650 6.67253E+013 
9700 6.6147E+013 
9750 6.55725E+013 
9800 6.50018E+013 
9850 6.44349E+013 
9900 6.38717E+013 
9950 6.33123E+013 
10000 6.27566E+013 
10050 6.22047E+013 
10100 6.16566E+013 
10150 6.11123E+013 
10200 6.05717E+013 
10250 6.00348E+013 
10300 5.95017E+013 
10350 5.89724E+013 
10400 5.84467E+013 
10450 5.79249E+013 
10500 5.74067E+013 
10550 5.68923E+013 
10600 5.63816E+013 
10650 5.58746E+013 
10700 5.53713E+013 
10750 5.48717E+013 
10800 5.43758E+013 
10850 5.38835E+013 
10900 5.33949E+013 
10950 5.29099E+013 
11000 5.24286E+013 
11050 5.19509E+013 
11100 5.14769E+013 
11150 5.10064E+013 
11200 5.05395E+013 
11250 5.00762E+013 
11300 4.96165E+013 
11350 4.91603E+013 
11400 4.87076E+013 
11450 4.82585E+013 
11500 4.78129E+013 
11550 4.73708E+013 
11600 4.69321E+013 
11650 4.64969E+013 
11700 4.60652E+013 
11750 4.56369E+013 
11800 4.5212E+013 
11850 4.47905E+013 
11900 4.43725E+013 
11950 4.39577E+013 
12000 4.35464E+013 
12050 4.31383E+013 
12100 4.27336E+013 
12150 4.23322E+013 
12200 4.19341E+013 
12250 4.15392E+013 
12300 4.11476E+013 
12350 4.07592E+013 
12400 4.03741E+013 
12450 3.99921E+013 
12500 3.96134E+013 
12550 3.92377E+013 
12600 3.88653E+013 
12650 3.84959E+013 
12700 3.81297E+013 
12750 3.77665E+013 
12800 3.74064E+013 
12850 3.70494E+013 
12900 3.66954E+013 
12950 3.63444E+013 
13000 3.59964E+013 
13050 3.56514E+013 
13100 3.53094E+013 
13150 3.49703E+013 
13200 3.46341E+013 
13250 3.43008E+013 
13300 3.39704E+013 
13350 3.36429E+013 
13400 3.33182E+013 
13450 3.29964E+013 
13500 3.26773E+013 
13550 3.23611E+013 
13600 3.20476E+013 
13650 3.17369E+013 
13700 3.14289E+013 
13750 3.11236E+013 
13800 3.0821E+013 
13850 3.05211E+013 
13900 3.02239E+013 
13950 2.99292E+013 
14000 2.96373E+013 
14050 2.93479E+013 
14100 2.90611E+013 
14150 2.87768E+013 
14200 2.84952E+013 
14250 2.8216E+013 
14300 2.79394E+013 
14350 2.76652E+013 
14400 2.73935E+013 
14450 2.71243E+013 
14500 2.68575E+013 
14550 2.65932E+013 
14600 2.63312E+013 
14650 2.60716E+013 
14700 2.58144E+013 
14750 2.55595E+013 
14800 2.5307E+013 
14850 2.50568E+013 
14900 2.48088E+013 
14950 2.45632E+013 
15000 2.43198E+013 
15050 2.40786E+013 
15100 2.38397E+013 
15150 2.36029E+013 
15200 2.33684E+013 
15250 2.3136E+013 
15300 2.29058E+013 
15350 2.26777E+013 
15400 2.24518E+013 
15450 2.22279E+013 
15500 2.20061E+013 
15550 2.17864E+013 
15600 2.15688E+013 
15650 2.13531E+013 
15700 2.11395E+013 
15750 2.09279E+013 
15800 2.07183E+013 
15850 2.05107E+013 
15900 2.0305E+013 
15950 2.01013E+013 
16000 1.98994E+013 
16050 1.96995E+013 
16100 1.95015E+013 
16150 1.93053E+013 
16200 1.91111E+013 
16250 1.89186E+013 
16300 1.8728E+013 
16350 1.85392E+013 
16400 1.83521E+013 
16450 1.81669E+013 
16500 1.79834E+013 
16550 1.78017E+013 
16600 1.76217E+013 
16650 1.74435E+013 
16700 1.7267E+013 
16750 1.70921E+013 
16800 1.69189E+013 
16850 1.67474E+013 
16900 1.65775E+013 
16950 1.64093E+013 
17000 1.62427E+013 
17050 1.60777E+013 
17100 1.59143E+013 
17150 1.57524E+013 
17200 1.55922E+013 
17250 1.54335E+013 
17300 1.52763E+013 
17350 1.51206E+013 
17400 1.49665E+013 
17450 1.48138E+013 
17500 1.46627E+013 
17550 1.4513E+013 
17600 1.43647E+013 
17650 1.4218E+013 
17700 1.40726E+013 
17750 1.39287E+013 
17800 1.37861E+013 
17850 1.3645E+013 
17900 1.35052E+013 
17950 1.33669E+013 
18000 1.32298E+013 
18050 1.30941E+013 
18100 1.29598E+013 
18150 1.28267E+013 
18200 1.2695E+013 
18250 1.25646E+013 
18300 1.24354E+013 
18350 1.23076E+013 
18400 1.2181E+013 
18450 1.20556E+013 
18500 1.19315E+013 
18550 1.18086E+013 
18600 1.16869E+013 
18650 1.15664E+013 
18700 1.14471E+013 
18750 1.1329E+013 
18800 1.12121E+013 
18850 1.10963E+013 
18900 1.09817E+013 
18950 1.08683E+013 
19000 1.07559E+013 
19050 1.06447E+013 
19100 1.05346E+013 
19150 1.04255E+013 
19200 1.03176E+013 
19250 1.02107E+013 
19300 1.01049E+013 
19350 1.00002E+013 
19400 9.89651E+012 
19450 9.79386E+012 
19500 9.69223E+012 
19550 9.59163E+012 
19600 9.49203E+012 
19650 9.39343E+012 
19700 9.29583E+012 
19750 9.1992E+012 
19800 9.10354E+012 
19850 9.00884E+012 
19900 8.9151E+012 
19950 8.8223E+012 
20000 8.73044E+012 
20050 8.6395E+012 
20100 8.54947E+012 
20150 8.46036E+012 
20200 8.37215E+012 
20250 8.28482E+012 
20300 8.19838E+012 
20350 8.11282E+012 
20400 8.02811E+012 
20450 7.94427E+012 
20500 7.86127E+012 
20550 7.77912E+012 
20600 7.6978E+012 
20650 7.6173E+012 
20700 7.53762E+012 
20750 7.45875E+012 
20800 7.38068E+012 
20850 7.30341E+012 
20900 7.22692E+012 
20950 7.1512E+012 
21000 7.07626E+012 
21050 7.00209E+012 
21100 6.92866E+012 
21150 6.85599E+012 
21200 6.78406E+012 
21250 6.71286E+012 
21300 6.64239E+012 
21350 6.57263E+012 
21400 6.50359E+012 
21450 6.43526E+012 
21500 6.36763E+012 
21550 6.30068E+012 
21600 6.23443E+012 
21650 6.16885E+012 
21700 6.10394E+012 
21750 6.0397E+012 
21800 5.97612E+012 
21850 5.91318E+012 
21900 5.8509E+012 
21950 5.78926E+012 
22000 5.72824E+012 
22050 5.66786E+012 
22100 5.60809E+012 
22150 5.54894E+012 
22200 5.4904E+012 
22250 5.43247E+012 
22300 5.37512E+012 
22350 5.31837E+012 
22400 5.26221E+012 
22450 5.20662E+012 
22500 5.15161E+012 
22550 5.09716E+012 
22600 5.04328E+012 
22650 4.98995E+012 
22700 4.93717E+012 
22750 4.88494E+012 
22800 4.83325E+012 
22850 4.7821E+012 
22900 4.73147E+012 
22950 4.68137E+012 
23000 4.63178E+012 
23050 4.58271E+012 
23100 4.53415E+012 
23150 4.48609E+012 
23200 4.43853E+012 
23250 4.39146E+012 
23300 4.34489E+012 
23350 4.29879E+012 
23400 4.25317E+012 
23450 4.20803E+012 
23500 4.16336E+012 
23550 4.11915E+012 
23600 4.0754E+012 
23650 4.03211E+012 
23700 3.98926E+012 
23750 3.94687E+012 
23800 3.90491E+012 
23850 3.86339E+012 
23900 3.8223E+012 
23950 3.78165E+012 
24000 3.74141E+012 
24050 3.7016E+012 
24100 3.6622E+012 
24150 3.62321E+012 
24200 3.58463E+012 
24250 3.54645E+012 
24300 3.50868E+012 
24350 3.47129E+012 
24400 3.4343E+012 
24450 3.39769E+012 
24500 3.36147E+012 
24550 3.32562E+012 
24600 3.29015E+012 
24650 3.25505E+012 
24700 3.22033E+012 
24750 3.18596E+012 
24800 3.15195E+012 
24850 3.1183E+012 
24900 3.085E+012 
24950 3.05206E+012 
25000 3.01946E+012 
25050 2.9872E+012 
25100 2.95527E+012 
25150 2.92369E+012 
25200 2.89243E+012 
25250 2.86151E+012 
25300 2.83091E+012 
25350 2.80063E+012 
25400 2.77066E+012 
25450 2.74102E+012 
25500 2.71168E+012 
25550 2.68266E+012 
25600 2.65394E+012 
25650 2.62552E+012 
25700 2.59741E+012 
25750 2.56958E+012 
25800 2.54205E+012 
25850 2.51482E+012 
25900 2.48787E+012 
25950 2.4612E+012 
26000 2.43481E+012 
26050 2.4087E+012 
26100 2.38287E+012 
26150 2.35731E+012 
26200 2.33202E+012 
26250 2.307E+012 
26300 2.28225E+012 
26350 2.25775E+012 
26400 2.23351E+012 
26450 2.20953E+012 
26500 2.1858E+012 
26550 2.16233E+012 
26600 2.1391E+012 
26650 2.11612E+012 
26700 2.09338E+012 
26750 2.07088E+012 
26800 2.04862E+012 
26850 2.0266E+012 
26900 2.00481E+012 
26950 1.98325E+012 
27000 1.96192E+012 
27050 1.94081E+012 
27100 1.91993E+012 
27150 1.89927E+012 
27200 1.87883E+012 
27250 1.85861E+012 
27300 1.8386E+012 
27350 1.8188E+012 
27400 1.79921E+012 
27450 1.77983E+012 
27500 1.76066E+012 
27550 1.74169E+012 
27600 1.72293E+012 
27650 1.70436E+012 
27700 1.68599E+012 
27750 1.66781E+012 
27800 1.64983E+012 
27850 1.63204E+012 
27900 1.61444E+012 
27950 1.59703E+012 
28000 1.5798E+012 
28050 1.56276E+012 
28100 1.54589E+012 
28150 1.52921E+012 
28200 1.5127E+012 
28250 1.49637E+012 
28300 1.48022E+012 
28350 1.46424E+012 
28400 1.44842E+012 
28450 1.43278E+012 
28500 1.4173E+012 
28550 1.40199E+012 
28600 1.38684E+012 
28650 1.37185E+012 
28700 1.35702E+012 
28750 1.34236E+012 
28800 1.32784E+012 
28850 1.31349E+012 
28900 1.29928E+012 
28950 1.28523E+012 
29000 1.27133E+012 
29050 1.25758E+012 
29100 1.24397E+012 
29150 1.23051E+012 
29200 1.21719E+012 
29250 1.20402E+012 
29300 1.19098E+012 
29350 1.17809E+012 
29400 1.16533E+012 
29450 1.15272E+012 
29500 1.14023E+012 
29550 1.12788E+012 
29600 1.11566E+012 
29650 1.10358E+012 
29700 1.09162E+012 
29750 1.07979E+012 
29800 1.06809E+012 
29850 1.05651E+012 
29900 1.04506E+012 
29950 1.03373E+012 
30000 1.02252E+012 
30050 1.01143E+012 
30100 1.00046E+012 
30150 9.89606E+011 
30200 9.7887E+011 
30250 9.6825E+011 
30300 9.57744E+011 
30350 9.47351E+011 
30400 9.37069E+011 
30450 9.26897E+011 
30500 9.16835E+011 
30550 9.06882E+011 
30600 8.97035E+011 
30650 8.87294E+011 
30700 8.77657E+011 
30750 8.68124E+011 
30800 8.58694E+011 
30850 8.49365E+011 
30900 8.40137E+011 
30950 8.31008E+011 
31000 8.21977E+011 
31050 8.13043E+011 
31100 8.04205E+011 
31150 7.95463E+011 
31200 7.86814E+011 
31250 7.78259E+011 
31300 7.69796E+011 
31350 7.61424E+011 
31400 7.53142E+011 
31450 7.4495E+011 
31500 7.36845E+011 
31550 7.28829E+011 
31600 7.20898E+011 
31650 7.13053E+011 
31700 7.05293E+011 
31750 6.97616E+011 
31800 6.90022E+011 
31850 6.8251E+011 
31900 6.75079E+011 
31950 6.67728E+011 
32000 6.60457E+011 
32050 6.53264E+011 
32100 6.46149E+011 
32150 6.3911E+011 
32200 6.32147E+011 
32250 6.2526E+011 
32300 6.18447E+011 
32350 6.11708E+011 
32400 6.05041E+011 
32450 5.98447E+011 
32500 5.91923E+011 
32550 5.85471E+011 
32600 5.79087E+011 
32650 5.72773E+011 
32700 5.66528E+011 
32750 5.60349E+011 
32800 5.54238E+011 
32850 5.48193E+011 
32900 5.42213E+011 
32950 5.36297E+011 
33000 5.30446E+011 
33050 5.24658E+011 
33100 5.18933E+011 
33150 5.1327E+011 
33200 5.07668E+011 
33250 5.02126E+011 
33300 4.96645E+011 
33350 4.91223E+011 
33400 4.8586E+011 
33450 4.80554E+011 
33500 4.75307E+011 
33550 4.70116E+011 
33600 4.64981E+011 
33650 4.59902E+011 
33700 4.54878E+011 
33750 4.49909E+011 
33800 4.44993E+011 
33850 4.40131E+011 
33900 4.35321E+011 
33950 4.30564E+011 
34000 4.25858E+011 
34050 4.21203E+011 
34100 4.16599E+011 
34150 4.12045E+011 
34200 4.0754E+011 
34250 4.03084E+011 
34300 3.98676E+011 
34350 3.94316E+011 
34400 3.90004E+011 
34450 3.85738E+011 
34500 3.81519E+011 
34550 3.77345E+011 
34600 3.73217E+011 
34650 3.69134E+011 
34700 3.65095E+011 
34750 3.61099E+011 
34800 3.57148E+011 
34850 3.53239E+011 
34900 3.49373E+011 
34950 3.45548E+011 
35000 3.41766E+011 
35050 3.38024E+011 
35100 3.34323E+011 
35150 3.30662E+011 
35200 3.27042E+011 
35250 3.2346E+011 
35300 3.19917E+011 
35350 3.16414E+011 
35400 3.12948E+011 
35450 3.09519E+011 
35500 3.06129E+011 
35550 3.02775E+011 
35600 2.99457E+011 
35650 2.96176E+011 
35700 2.9293E+011 
35750 2.8972E+011 
35800 2.86544E+011 
35850 2.83404E+011 
35900 2.80297E+011 
35950 2.77224E+011 
36000 2.74185E+011 
36050 2.71179E+011 
36100 2.68206E+011 
36150 2.65264E+011 
36200 2.62355E+011 
36250 2.59478E+011 
36300 2.56632E+011 
36350 2.53817E+011 
36400 2.51033E+011 
36450 2.48279E+011 
36500 2.45555E+011 
36550 2.42861E+011 
36600 2.40196E+011 
36650 2.37561E+011 
36700 2.34954E+011 
36750 2.32375E+011 
36800 2.29825E+011 
36850 2.27302E+011 
36900 2.24807E+011 
36950 2.22339E+011 
37000 2.19898E+011 
37050 2.17484E+011 
37100 2.15096E+011 
37150 2.12734E+011 
37200 2.10398E+011 
37250 2.08088E+011 
37300 2.05802E+011 
37350 2.03542E+011 
37400 2.01306E+011 
37450 1.99095E+011 
37500 1.96908E+011 
37550 1.94745E+011 
37600 1.92605E+011 
37650 1.90489E+011 
37700 1.88396E+011 
37750 1.86325E+011 
37800 1.84278E+011 
37850 1.82252E+011 
37900 1.80249E+011 
37950 1.78268E+011 
38000 1.76308E+011 
38050 1.7437E+011 
38100 1.72453E+011 
38150 1.70557E+011 
38200 1.68682E+011 
38250 1.66827E+011 
38300 1.64993E+011 
38350 1.63178E+011 
38400 1.61384E+011 
38450 1.59609E+011 
38500 1.57853E+011 
38550 1.56117E+011 
38600 1.544E+011 
38650 1.52701E+011 
38700 1.51021E+011 
38750 1.4936E+011 
38800 1.47716E+011 
38850 1.46091E+011 
38900 1.44483E+011 
38950 1.42893E+011 
39000 1.41321E+011 
39050 1.39765E+011 
39100 1.38227E+011 
39150 1.36705E+011 
39200 1.35201E+011 
39250 1.33712E+011 
39300 1.3224E+011 
39350 1.30784E+011 
39400 1.29344E+011 
39450 1.2792E+011 
39500 1.26512E+011 
39550 1.25118E+011 
39600 1.23741E+011 
39650 1.22378E+011 
39700 1.2103E+011 
39750 1.19697E+011 
39800 1.18378E+011 
39850 1.17074E+011 
39900 1.15785E+011 
39950 1.14509E+011 
40000 1.13247E+011 
40050 1.12E+011 
40100 1.10766E+011 
40150 1.09545E+011 
40200 1.08338E+011 
40250 1.07144E+011 
40300 1.05963E+011 
40350 1.04795E+011 
40400 1.0364E+011 
40450 1.02498E+011 
40500 1.01368E+011 
40550 1.00251E+011 
40600 9.91453E+010 
40650 9.80522E+010 
40700 9.69712E+010 
40750 9.5902E+010 
40800 9.48445E+010 
40850 9.37987E+010 
40900 9.27643E+010 
40950 9.17412E+010 
41000 9.07295E+010 
41050 8.97288E+010 
41100 8.87391E+010 
41150 8.77603E+010 
41200 8.67922E+010 
41250 8.58347E+010 
41300 8.48878E+010 
41350 8.39513E+010 
41400 8.30251E+010 
41450 8.2109E+010 
41500 8.1203E+010 
41550 8.03069E+010 
41600 7.94208E+010 
41650 7.85443E+010 
41700 7.76775E+010 
41750 7.68202E+010 
41800 7.59723E+010 
41850 7.51337E+010 
41900 7.43044E+010 
41950 7.34841E+010 
42000 7.26729E+010 
42050 7.18706E+010 
42100 7.10772E+010 
42150 7.02924E+010 
42200 6.95163E+010 
42250 6.87487E+010 
42300 6.79896E+010 
42350 6.72388E+010 
42400 6.64962E+010 
42450 6.57619E+010 
42500 6.50356E+010 
42550 6.43173E+010 
42600 6.36069E+010 
42650 6.29043E+010 
42700 6.22094E+010 
42750 6.15222E+010 
42800 6.08426E+010 
42850 6.01704E+010 
42900 5.95056E+010 
42950 5.88482E+010 
43000 5.8198E+010 
43050 5.75549E+010 
43100 5.69189E+010 
43150 5.62899E+010 
43200 5.56679E+010 
43250 5.50526E+010 
43300 5.44442E+010 
43350 5.38425E+010 
43400 5.32473E+010 
43450 5.26588E+010 
43500 5.20767E+010 
43550 5.1501E+010 
43600 5.09317E+010 
43650 5.03687E+010 
43700 4.98118E+010 
43750 4.92611E+010 
43800 4.87164E+010 
43850 4.81778E+010 
43900 4.7645E+010 
43950 4.71182E+010 
44000 4.65971E+010 
44050 4.60818E+010 
44100 4.55722E+010 
44150 4.50682E+010 
44200 4.45697E+010 
44250 4.40768E+010 
44300 4.35892E+010 
44350 4.31071E+010 
44400 4.26302E+010 
44450 4.21586E+010 
44500 4.16922E+010 
44550 4.1231E+010 
44600 4.07748E+010 
44650 4.03237E+010 
44700 3.98775E+010 
44750 3.94363E+010 
44800 3.89999E+010 
44850 3.85684E+010 
44900 3.81416E+010 
44950 3.77195E+010 
45000 3.7302E+010 
45050 3.68892E+010 
45100 3.64809E+010 
45150 3.60771E+010 
45200 3.56778E+010 
45250 3.52829E+010 
45300 3.48923E+010 
45350 3.45061E+010 
45400 3.41241E+010 
45450 3.37463E+010 
45500 3.33727E+010 
45550 3.30032E+010 
45600 3.26378E+010 
45650 3.22764E+010 
45700 3.19191E+010 
45750 3.15656E+010 
45800 3.12161E+010 
45850 3.08704E+010 
45900 3.05285E+010 
45950 3.01904E+010 
46000 2.98561E+010 
46050 2.95254E+010 
46100 2.91984E+010 
46150 2.8875E+010 
46200 2.85551E+010 
46250 2.82388E+010 
46300 2.7926E+010 
46350 2.76167E+010 
46400 2.73107E+010 
46450 2.70082E+010 
46500 2.67089E+010 
46550 2.6413E+010 
46600 2.61204E+010 
46650 2.5831E+010 
46700 2.55447E+010 
46750 2.52617E+010 
46800 2.49818E+010 
46850 2.47049E+010 
46900 2.44311E+010 
46950 2.41604E+010 
47000 2.38926E+010 
47050 2.36278E+010 
47100 2.3366E+010 
47150 2.3107E+010 
47200 2.28509E+010 
47250 2.25976E+010 
47300 2.23471E+010 
47350 2.20994E+010 
47400 2.18544E+010 
47450 2.16121E+010 
47500 2.13725E+010 
47550 2.11356E+010 
47600 2.09012E+010 
47650 2.06695E+010 
47700 2.04403E+010 
47750 2.02137E+010 
47800 1.99895E+010 
47850 1.97679E+010 
47900 1.95487E+010 
47950 1.93319E+010 
48000 1.91175E+010 
48050 1.89055E+010 
48100 1.86958E+010 
48150 1.84885E+010 
48200 1.82834E+010 
48250 1.80806E+010 
48300 1.78801E+010 
48350 1.76818E+010 
48400 1.74856E+010 
48450 1.72916E+010 
48500 1.70998E+010 
48550 1.69101E+010 
48600 1.67225E+010 
48650 1.6537E+010 
48700 1.63536E+010 
48750 1.61721E+010 
48800 1.59927E+010 
48850 1.58152E+010 
48900 1.56397E+010 
48950 1.54662E+010 
49000 1.52946E+010 
49050 1.51249E+010 
49100 1.4957E+010 
49150 1.47911E+010 
49200 1.46269E+010 
49250 1.44646E+010 
49300 1.4304E+010 
49350 1.41453E+010 
49400 1.39883E+010 
49450 1.3833E+010 
49500 1.36795E+010 
49550 1.35276E+010 
49600 1.33775E+010 
49650 1.3229E+010 
49700 1.30821E+010 
49750 1.29369E+010 
49800 1.27933E+010 
49850 1.26513E+010 
49900 1.25108E+010 
49950 1.23719E+010 
50000 1.22345E+010 
50050 1.20987E+010 
50100 1.19644E+010 
50150 1.18315E+010 
50200 1.17001E+010 
50250 1.15702E+010 
50300 1.14417E+010 
50350 1.13147E+010 
50400 1.1189E+010 
50450 1.10648E+010 
50500 1.09419E+010 
50550 1.08204E+010 
50600 1.07002E+010 
50650 1.05814E+010 
50700 1.04638E+010 
50750 1.03476E+010 
50800 1.02327E+010 
50850 1.0119E+010 
50900 1.00066E+010 
50950 9.89545E+009 
51000 9.78553E+009 
51050 9.67682E+009 
51100 9.56932E+009 
51150 9.46301E+009 
51200 9.35788E+009 
51250 9.25391E+009 
51300 9.1511E+009 
51350 9.04942E+009 
51400 8.94888E+009 
51450 8.84945E+009 
51500 8.75112E+009 
51550 8.65388E+009 
51600 8.55771E+009 
51650 8.46262E+009 
51700 8.36858E+009 
51750 8.27558E+009 
51800 8.18361E+009 
51850 8.09267E+009 
51900 8.00273E+009 
51950 7.91379E+009 
52000 7.82583E+009 
52050 7.73885E+009 
52100 7.65284E+009 
52150 7.56778E+009 
52200 7.48366E+009 
52250 7.40047E+009 
52300 7.31821E+009 
52350 7.23686E+009 
52400 7.15641E+009 
52450 7.07686E+009 
52500 6.99819E+009 
52550 6.92039E+009 
52600 6.84345E+009 
52650 6.76737E+009 
52700 6.69213E+009 
52750 6.61773E+009 
52800 6.54415E+009 
52850 6.47139E+009 
52900 6.39943E+009 
52950 6.32828E+009 
53000 6.25791E+009 
53050 6.18832E+009 
53100 6.11951E+009 
53150 6.05146E+009 
53200 5.98417E+009 
53250 5.91762E+009 
53300 5.85181E+009 
53350 5.78673E+009 
53400 5.72238E+009 
53450 5.65873E+009 
53500 5.5958E+009 
53550 5.53356E+009 
53600 5.47201E+009 
53650 5.41115E+009 
53700 5.35096E+009 
53750 5.29144E+009 
53800 5.23259E+009 
53850 5.17438E+009 
53900 5.11682E+009 
53950 5.0599E+009 
54000 5.00361E+009 
54050 4.94795E+009 
54100 4.8929E+009 
54150 4.83847E+009 
54200 4.78464E+009 
54250 4.73141E+009 
54300 4.67877E+009 
54350 4.62672E+009 
54400 4.57524E+009 
54450 4.52433E+009 
54500 4.47399E+009 
54550 4.42421E+009 
54600 4.37498E+009 
54650 4.3263E+009 
54700 4.27816E+009 
54750 4.23055E+009 
54800 4.18347E+009 
54850 4.13692E+009 
54900 4.09088E+009 
54950 4.04535E+009 
55000 4.00033E+009 
55050 3.95581E+009 
55100 3.91179E+009 
55150 3.86825E+009 
55200 3.8252E+009 
55250 3.78262E+009 
55300 3.74052E+009 
55350 3.69889E+009 
55400 3.65771E+009 
55450 3.617E+009 
55500 3.57674E+009 
55550 3.53692E+009 
55600 3.49755E+009 
55650 3.45862E+009 
55700 3.42012E+009 
55750 3.38204E+009 
55800 3.34439E+009 
55850 3.30716E+009 
55900 3.27034E+009 
55950 3.23393E+009 
56000 3.19793E+009 
56050 3.16232E+009 
56100 3.12712E+009 
56150 3.0923E+009 
56200 3.05787E+009 
56250 3.02382E+009 
56300 2.99015E+009 
56350 2.95686E+009 
56400 2.92393E+009 
56450 2.89137E+009 
56500 2.85918E+009 
56550 2.82734E+009 
56600 2.79585E+009 
56650 2.76472E+009 
56700 2.73393E+009 
56750 2.70348E+009 
56800 2.67338E+009 
56850 2.6436E+009 
56900 2.61416E+009 
56950 2.58505E+009 
57000 2.55625E+009 
57050 2.52778E+009 
57100 2.49963E+009 
57150 2.47179E+009 
57200 2.44426E+009 
57250 2.41703E+009 
57300 2.39011E+009 
57350 2.36349E+009 
57400 2.33716E+009 
57450 2.31112E+009 
57500 2.28538E+009 
57550 2.25992E+009 
57600 2.23475E+009 
57650 2.20985E+009 
57700 2.18523E+009 
57750 2.16089E+009 
57800 2.13681E+009 
57850 2.11301E+009 
57900 2.08947E+009 
57950 2.06619E+009 
58000 2.04317E+009 
58050 2.0204E+009 
58100 1.99789E+009 
58150 1.97563E+009 
58200 1.95362E+009 
58250 1.93185E+009 
58300 1.91033E+009 
58350 1.88904E+009 
58400 1.86799E+009 
58450 1.84718E+009 
58500 1.82659E+009 
58550 1.80624E+009 
58600 1.78611E+009 
58650 1.76621E+009 
58700 1.74652E+009 
58750 1.72706E+009 
58800 1.70781E+009 
58850 1.68878E+009 
58900 1.66996E+009 
58950 1.65135E+009 
59000 1.63294E+009 
59050 1.61474E+009 
59100 1.59675E+009 
59150 1.57895E+009 
59200 1.56135E+009 
59250 1.54395E+009 
59300 1.52674E+009 
59350 1.50972E+009 
59400 1.49289E+009 
59450 1.47625E+009 
59500 1.4598E+009 
59550 1.44352E+009 
59600 1.42743E+009 
59650 1.41152E+009 
59700 1.39579E+009 
59750 1.38023E+009 
59800 1.36484E+009 
59850 1.34962E+009 
59900 1.33458E+009 
59950 1.3197E+009 
60000 1.30499E+009 
60050 1.29044E+009 
60100 1.27605E+009 
60150 1.26183E+009 
60200 1.24776E+009 
60250 1.23384E+009 
60300 1.22009E+009 
60350 1.20648E+009 
60400 1.19303E+009 
60450 1.17973E+009 
60500 1.16657E+009 
60550 1.15357E+009 
60600 1.14071E+009 
60650 1.12799E+009 
60700 1.11541E+009 
60750 1.10297E+009 
60800 1.09067E+009 
60850 1.07851E+009 
60900 1.06648E+009 
60950 1.05459E+009 
61000 1.04283E+009 
61050 1.0312E+009 
61100 1.0197E+009 
61150 1.00832E+009 
61200 9.97079E+008 
61250 9.85959E+008 
61300 9.74963E+008 
61350 9.64089E+008 
61400 9.53337E+008 
61450 9.42704E+008 
61500 9.32189E+008 
61550 9.21792E+008 
61600 9.11511E+008 
61650 9.01344E+008 
61700 8.9129E+008 
61750 8.81348E+008 
61800 8.71518E+008 
61850 8.61796E+008 
61900 8.52183E+008 
61950 8.42677E+008 
62000 8.33277E+008 
62050 8.23982E+008 
62100 8.1479E+008 
62150 8.05701E+008 
62200 7.96713E+008 
62250 7.87825E+008 
62300 7.79036E+008 
62350 7.70345E+008 
62400 7.61751E+008 
62450 7.53252E+008 
62500 7.44849E+008 
62550 7.36539E+008 
62600 7.28321E+008 
62650 7.20195E+008 
62700 7.1216E+008 
62750 7.04214E+008 
62800 6.96357E+008 
62850 6.88588E+008 
62900 6.80905E+008 
62950 6.73307E+008 
63000 6.65794E+008 
63050 6.58366E+008 
63100 6.51019E+008 
63150 6.43755E+008 
63200 6.36572E+008 
63250 6.29468E+008 
63300 6.22444E+008 
63350 6.15498E+008 
63400 6.0863E+008 
63450 6.01838E+008 
63500 5.95122E+008 
63550 5.88481E+008 
63600 5.81914E+008 
63650 5.7542E+008 
63700 5.68998E+008 
63750 5.62648E+008 
63800 5.56369E+008 
63850 5.50159E+008 
63900 5.44019E+008 
63950 5.37948E+008 
64000 5.31944E+008 
64050 5.26007E+008 
64100 5.20136E+008 
64150 5.14331E+008 
64200 5.0859E+008 
64250 5.02914E+008 
64300 4.973E+008 
64350 4.9175E+008 
64400 4.86261E+008 
64450 4.80833E+008 
64500 4.75466E+008 
64550 4.70159E+008 
64600 4.64911E+008 
64650 4.59721E+008 
64700 4.5459E+008 
64750 4.49515E+008 
64800 4.44497E+008 
64850 4.39535E+008 
64900 4.34629E+008 
64950 4.29777E+008 
65000 4.24979E+008 
65050 4.20235E+008 
65100 4.15544E+008 
65150 4.10905E+008 
65200 4.06317E+008 
65250 4.01781E+008 
65300 3.97296E+008 
65350 3.9286E+008 
65400 3.88474E+008 
65450 3.84137E+008 
65500 3.79848E+008 
65550 3.75607E+008 
65600 3.71414E+008 
65650 3.67267E+008 
65700 3.63166E+008 
65750 3.59111E+008 
65800 3.55102E+008 
65850 3.51137E+008 
65900 3.47216E+008 
65950 3.43339E+008 
66000 3.39506E+008 
66050 3.35715E+008 
66100 3.31966E+008 
66150 3.28259E+008 
66200 3.24594E+008 
66250 3.20969E+008 
66300 3.17385E+008 
66350 3.13841E+008 
66400 3.10336E+008 
66450 3.06871E+008 
66500 3.03444E+008 
66550 3.00055E+008 
66600 2.96704E+008 
66650 2.93391E+008 
66700 2.90115E+008 
66750 2.86875E+008 
66800 2.83671E+008 
66850 2.80503E+008 
66900 2.7737E+008 
66950 2.74273E+008 
67000 2.71209E+008 
67050 2.6818E+008 
67100 2.65185E+008 
67150 2.62224E+008 
67200 2.59295E+008 
67250 2.56399E+008 
67300 2.53535E+008 
67350 2.50703E+008 
67400 2.47903E+008 
67450 2.45134E+008 
67500 2.42396E+008 
67550 2.39689E+008 
67600 2.37012E+008 
67650 2.34364E+008 
67700 2.31746E+008 
67750 2.29158E+008 
67800 2.26598E+008 
67850 2.24067E+008 
67900 2.21564E+008 
67950 2.19089E+008 
68000 2.16642E+008 
68050 2.14222E+008 
68100 2.11829E+008 
68150 2.09462E+008 
68200 2.07123E+008 
68250 2.04809E+008 
68300 2.02521E+008 
68350 2.00258E+008 
68400 1.98021E+008 
68450 1.95809E+008 
68500 1.93622E+008 
68550 1.91458E+008 
68600 1.8932E+008 
68650 1.87204E+008 
68700 1.85113E+008 
68750 1.83045E+008 
68800 1.81E+008 
68850 1.78978E+008 
68900 1.76978E+008 
68950 1.75001E+008 
69000 1.73046E+008 
69050 1.71112E+008 
69100 1.692E+008 
69150 1.6731E+008 
69200 1.65441E+008 
69250 1.63592E+008 
69300 1.61764E+008 
69350 1.59957E+008 
69400 1.5817E+008 
69450 1.56402E+008 
69500 1.54655E+008 
69550 1.52927E+008 
69600 1.51218E+008 
69650 1.49528E+008 
69700 1.47857E+008 
69750 1.46205E+008 
69800 1.44571E+008 
69850 1.42956E+008 
69900 1.41358E+008 
69950 1.39779E+008 
70000 1.38217E+008 
70050 1.36672E+008 
70100 1.35145E+008 
70150 1.33635E+008 
70200 1.32141E+008 
70250 1.30665E+008 
70300 1.29204E+008 
70350 1.2776E+008 
70400 1.26333E+008 
70450 1.24921E+008 
70500 1.23525E+008 
70550 1.22144E+008 
70600 1.20779E+008 
70650 1.19429E+008 
70700 1.18095E+008 
70750 1.16775E+008 
70800 1.1547E+008 
70850 1.14179E+008 
70900 1.12903E+008 
70950 1.11641E+008 
71000 1.10393E+008 
71050 1.0916E+008 
71100 1.0794E+008 
71150 1.06733E+008 
71200 1.0554E+008 
71250 1.04361E+008 
71300 1.03194E+008 
71350 1.02041E+008 
71400 1.009E+008 
71450 9.97724E+007 
71500 9.86572E+007 
71550 9.75545E+007 
71600 9.6464E+007 
71650 9.53858E+007 
71700 9.43196E+007 
71750 9.32653E+007 
71800 9.22228E+007 
71850 9.11919E+007 
71900 9.01725E+007 
71950 8.91645E+007 
72000 8.81678E+007 
72050 8.71822E+007 
72100 8.62077E+007 
72150 8.5244E+007 
72200 8.42911E+007 
72250 8.33488E+007 
72300 8.2417E+007 
72350 8.14957E+007 
72400 8.05846E+007 
72450 7.96838E+007 
72500 7.8793E+007 
72550 7.79121E+007 
72600 7.70411E+007 
72650 7.61798E+007 
72700 7.53282E+007 
72750 7.4486E+007 
72800 7.36533E+007 
72850 7.28298E+007 
72900 7.20156E+007 
72950 7.12105E+007 
73000 7.04143E+007 
73050 6.96271E+007 
73100 6.88486E+007 
73150 6.80789E+007 
73200 6.73177E+007 
73250 6.65651E+007 
73300 6.58208E+007 
73350 6.50849E+007 
73400 6.43572E+007 
73450 6.36376E+007 
73500 6.29261E+007 
73550 6.22225E+007 
73600 6.15268E+007 
73650 6.08389E+007 
73700 6.01586E+007 
73750 5.9486E+007 
73800 5.88208E+007 
73850 5.81631E+007 
73900 5.75128E+007 
73950 5.68697E+007 
74000 5.62338E+007 
74050 5.5605E+007 
74100 5.49832E+007 
74150 5.43684E+007 
74200 5.37604E+007 
74250 5.31593E+007 
74300 5.25648E+007 
74350 5.1977E+007 
74400 5.13958E+007 
74450 5.08211E+007 
74500 5.02528E+007 
74550 4.96908E+007 
74600 4.91351E+007 
74650 4.85857E+007 
74700 4.80423E+007 
74750 4.75051E+007 
74800 4.69738E+007 
74850 4.64485E+007 
74900 4.59291E+007 
74950 4.54154E+007 
75000 4.49076E+007 
75050 4.44053E+007 
75100 4.39087E+007 
75150 4.34177E+007 
75200 4.29321E+007 
75250 4.2452E+007 
75300 4.19772E+007 
75350 4.15077E+007 
75400 4.10435E+007 
75450 4.05845E+007 
75500 4.01306E+007 
75550 3.96818E+007 
75600 3.92379E+007 
75650 3.87991E+007 
75700 3.83652E+007 
75750 3.79361E+007 
75800 3.75118E+007 
75850 3.70922E+007 
75900 3.66773E+007 
75950 3.62671E+007 
76000 3.58615E+007 
76050 3.54604E+007 
76100 3.50638E+007 
76150 3.46716E+007 
76200 3.42838E+007 
76250 3.39003E+007 
76300 3.35211E+007 
76350 3.31462E+007 
76400 3.27754E+007 
76450 3.24088E+007 
76500 3.20463E+007 
76550 3.16879E+007 
76600 3.13334E+007 
76650 3.09829E+007 
76700 3.06363E+007 
76750 3.02937E+007 
76800 2.99548E+007 
76850 2.96197E+007 
76900 2.92884E+007 
76950 2.89608E+007 
77000 2.86368E+007 
77050 2.83165E+007 
77100 2.79997E+007 
77150 2.76865E+007 
77200 2.73768E+007 
77250 2.70705E+007 
77300 2.67677E+007 
77350 2.64683E+007 
77400 2.61722E+007 
77450 2.58794E+007 
77500 2.55899E+007 
77550 2.53036E+007 
77600 2.50205E+007 
77650 2.47406E+007 
77700 2.44638E+007 
77750 2.41902E+007 
77800 2.39195E+007 
77850 2.36519E+007 
77900 2.33873E+007 
77950 2.31257E+007 
78000 2.2867E+007 
78050 2.26112E+007 
78100 2.23582E+007 
78150 2.21081E+007 
78200 2.18607E+007 
78250 2.16161E+007 
78300 2.13743E+007 
78350 2.11352E+007 
78400 2.08987E+007 
78450 2.06649E+007 
78500 2.04337E+007 
78550 2.02051E+007 
78600 1.9979E+007 
78650 1.97555E+007 
78700 1.95344E+007 
78750 1.93159E+007 
78800 1.90998E+007 
78850 1.88861E+007 
78900 1.86748E+007 
78950 1.84658E+007 
79000 1.82592E+007 
79050 1.80549E+007 
79100 1.78529E+007 
79150 1.76531E+007 
79200 1.74556E+007 
79250 1.72603E+007 
79300 1.70672E+007 
79350 1.68762E+007 
79400 1.66874E+007 
79450 1.65006E+007 
79500 1.6316E+007 
79550 1.61334E+007 
79600 1.59529E+007 
79650 1.57744E+007 
79700 1.55979E+007 
79750 1.54234E+007 
79800 1.52508E+007 
79850 1.50801E+007 
79900 1.49114E+007 
79950 1.47445E+007 
80000 1.45795E+007 
80050 1.44164E+007 
80100 1.42551E+007 
80150 1.40955E+007 
80200 1.39378E+007 
80250 1.37818E+007 
80300 1.36276E+007 
80350 1.34751E+007 
80400 1.33243E+007 
80450 1.31752E+007 
80500 1.30278E+007 
80550 1.2882E+007 
80600 1.27378E+007 
80650 1.25953E+007 
80700 1.24543E+007 
80750 1.2315E+007 
80800 1.21772E+007 
80850 1.20409E+007 
80900 1.19061E+007 
80950 1.17729E+007 
81000 1.16411E+007 
81050 1.15109E+007 
81100 1.1382E+007 
81150 1.12547E+007 
81200 1.11287E+007 
81250 1.10042E+007 
81300 1.0881E+007 
81350 1.07592E+007 
81400 1.06388E+007 
81450 1.05197E+007 
81500 1.0402E+007 
81550 1.02856E+007 
81600 1.01705E+007 
81650 1.00567E+007 
81700 9.9441E+006 
81750 9.8328E+006 
81800 9.72276E+006 
81850 9.61394E+006 
81900 9.50634E+006 
81950 9.39994E+006 
82000 9.29473E+006 
82050 9.1907E+006 
82100 9.08784E+006 
82150 8.98612E+006 
82200 8.88555E+006 
82250 8.7861E+006 
82300 8.68776E+006 
82350 8.59052E+006 
82400 8.49437E+006 
82450 8.39929E+006 
82500 8.30528E+006 
82550 8.21232E+006 
82600 8.1204E+006 
82650 8.02951E+006 
82700 7.93964E+006 
82750 7.85077E+006 
82800 7.76289E+006 
82850 7.676E+006 
82900 7.59008E+006 
82950 7.50513E+006 
83000 7.42112E+006 
83050 7.33805E+006 
83100 7.25592E+006 
83150 7.1747E+006 
83200 7.09439E+006 
83250 7.01498E+006 
83300 6.93645E+006 
83350 6.85881E+006 
83400 6.78203E+006 
83450 6.70612E+006 
83500 6.63105E+006 
83550 6.55682E+006 
83600 6.48343E+006 
83650 6.41085E+006 
83700 6.33909E+006 
83750 6.26813E+006 
83800 6.19796E+006 
83850 6.12858E+006 
83900 6.05998E+006 
83950 5.99214E+006 
84000 5.92506E+006 
84050 5.85874E+006 
84100 5.79315E+006 
84150 5.7283E+006 
84200 5.66418E+006 
84250 5.60077E+006 
84300 5.53807E+006 
84350 5.47607E+006 
84400 5.41477E+006 
84450 5.35416E+006 
84500 5.29422E+006 
84550 5.23495E+006 
84600 5.17635E+006 
84650 5.1184E+006 
84700 5.0611E+006 
84750 5.00444E+006 
84800 4.94841E+006 
84850 4.89302E+006 
84900 4.83824E+006 
84950 4.78407E+006 
85000 4.73051E+006 
85050 4.67755E+006 
85100 4.62519E+006 
85150 4.57341E+006 
85200 4.52221E+006 
85250 4.47158E+006 
85300 4.42152E+006 
85350 4.37202E+006 
85400 4.32307E+006 
85450 4.27467E+006 
85500 4.22681E+006 
85550 4.17949E+006 
85600 4.1327E+006 
85650 4.08643E+006 
85700 4.04068E+006 
85750 3.99544E+006 
85800 3.95071E+006 
85850 3.90647E+006 
85900 3.86274E+006 
85950 3.81949E+006 
86000 3.77673E+006 
86050 3.73444E+006 
86100 3.69263E+006 
86150 3.65129E+006 
86200 3.61041E+006 
86250 3.56998E+006 
86300 3.53001E+006 
86350 3.49049E+006 
86400 3.45141E+006 
86450 3.41276E+006 
86500 3.37455E+006 
86550 3.33677E+006 
86600 3.29941E+006 
86650 3.26247E+006 
86700 3.22594E+006 
86750 3.18982E+006 
86800 3.1541E+006 
86850 3.11879E+006 
86900 3.08387E+006 
86950 3.04934E+006 
87000 3.01519E+006 
87050 2.98143E+006 
87100 2.94805E+006 
87150 2.91504E+006 
87200 2.8824E+006 
87250 2.85012E+006 
87300 2.81821E+006 
87350 2.78665E+006 
87400 2.75545E+006 
87450 2.7246E+006 
87500 2.69409E+006 
87550 2.66392E+006 
87600 2.63409E+006 
87650 2.6046E+006 
87700 2.57543E+006 
87750 2.54659E+006 
87800 2.51808E+006 
87850 2.48988E+006 
87900 2.462E+006 
87950 2.43443E+006 
88000 2.40717E+006 
88050 2.38022E+006 
88100 2.35356E+006 
88150 2.32721E+006 
88200 2.30115E+006 
88250 2.27538E+006 
88300 2.2499E+006 
88350 2.22471E+006 
88400 2.19979E+006 
88450 2.17516E+006 
88500 2.1508E+006 
88550 2.12672E+006 
88600 2.1029E+006 
88650 2.07935E+006 
88700 2.05607E+006 
88750 2.03304E+006 
88800 2.01028E+006 
88850 1.98777E+006 
88900 1.96551E+006 
88950 1.9435E+006 
89000 1.92173E+006 
89050 1.90021E+006 
89100 1.87893E+006 
89150 1.85789E+006 
89200 1.83708E+006 
89250 1.81651E+006 
89300 1.79617E+006 
89350 1.77605E+006 
89400 1.75616E+006 
89450 1.7365E+006 
89500 1.71705E+006 
89550 1.69782E+006 
89600 1.67881E+006 
89650 1.66001E+006 
89700 1.64141E+006 
89750 1.62303E+006 
89800 1.60486E+006 
89850 1.58688E+006 
89900 1.56911E+006 
89950 1.55154E+006 
90000 1.53416E+006 
90050 1.51698E+006 
90100 1.49999E+006 
90150 1.48319E+006 
90200 1.46658E+006 
90250 1.45016E+006 
90300 1.43392E+006 
90350 1.41786E+006 
90400 1.40198E+006 
90450 1.38628E+006 
90500 1.37075E+006 
90550 1.3554E+006 
90600 1.34022E+006 
90650 1.32521E+006 
90700 1.31037E+006 
90750 1.29569E+006 
90800 1.28118E+006 
90850 1.26683E+006 
90900 1.25264E+006 
90950 1.23861E+006 
91000 1.22474E+006 
91050 1.21102E+006 
91100 1.19746E+006 
91150 1.18405E+006 
91200 1.17079E+006 
91250 1.15767E+006 
91300 1.14471E+006 
91350 1.13189E+006 
91400 1.11921E+006 
91450 1.10667E+006 
91500 1.09428E+006 
91550 1.08202E+006 
91600 1.0699E+006 
91650 1.05792E+006 
91700 1.04607E+006 
91750 1.03435E+006 
91800 1.02277E+006 
91850 1.01131E+006 
91900 999985 
91950 988785 
92000 977710 
92050 966759 
92100 955931 
92150 945223 
92200 934636 
92250 924168 
92300 913816 
92350 903581 
92400 893460 
92450 883452 
92500 873557 
92550 863772 
92600 854097 
92650 844530 
92700 835070 
92750 825717 
92800 816468 
92850 807322 
92900 798279 
92950 789338 
93000 780496 
93050 771754 
93100 763109 
93150 754561 
93200 746109 
93250 737751 
93300 729488 
93350 721316 
93400 713236 
93450 705247 
93500 697347 
93550 689536 
93600 681812 
93650 674174 
93700 666623 
93750 659155 
93800 651772 
93850 644471 
93900 637251 
93950 630113 
94000 623054 
94050 616075 
94100 609174 
94150 602350 
94200 595602 
94250 588930 
94300 582333 
94350 575810 
94400 569360 
94450 562982 
94500 556675 
94550 550439 
94600 544273 
94650 538176 
94700 532147 
94750 526186 
94800 520291 
94850 514463 
94900 508700 
94950 503001 
95000 497366 
95050 491794 
95100 486285 
95150 480837 
95200 475451 
95250 470124 
95300 464858 
95350 459650 
95400 454501 
95450 449409 
95500 444375 
95550 439396 
95600 434474 
95650 429607 
95700 424794 
95750 420035 
95800 415329 
95850 410676 
95900 406076 
95950 401526 
96000 397028 
96050 392580 
96100 388182 
96150 383833 
96200 379533 
96250 375281 
96300 371077 
96350 366920 
96400 362809 
96450 358744 
96500 354725 
96550 350751 
96600 346822 
96650 342936 
96700 339094 
96750 335295 
96800 331539 
96850 327824 
96900 324151 
96950 320520 
97000 316929 
97050 313378 
97100 309867 
97150 306395 
97200 302963 
97250 299568 
97300 296212 
97350 292894 
97400 289612 
97450 286367 
97500 283159 
97550 279986 
97600 276850 
97650 273748 
97700 270681 
97750 267648 
97800 264649 
97850 261684 
97900 258752 
97950 255853 
98000 252987 
98050 250152 
98100 247349 
98150 244578 
98200 241838 
98250 239128 
98300 236449 
98350 233800 
98400 231180 
98450 228590 
98500 226029 
98550 223496 
98600 220992 
98650 218516 
98700 216068 
98750 213647 
98800 211253 
98850 208886 
98900 206546 
98950 204232 
99000 201943 
99050 199681 
99100 197443 
99150 195231 
99200 193043 
99250 190881 
99300 188742 
99350 186627 
99400 184536 
99450 182468 
99500 180424 
99550 178402 
99600 176403 
99650 174427 
99700 172472 
99750 170540 
99800 168629 
99850 166739 
99900 164871 
99950 163024 
100000 161197 
