#F U:\Beamline I20\EDE line\!M2 and filters heat load\xop\C-pyro-0p6mm.dat
#C pyro C 0.6 mm
#S 1 File written by xplot on Wed Mar 25 09:43:29 2009
#N 2
#L    Photon Energy [eV]  Intens after oe #1
50 0 
100 0 
150 0 
200 0 
250 0 
300 0 
350 0 
400 0 
450 0 
500 0 
550 0 
600 0 
650 0 
700 0 
750 0 
800 0 
850 0 
900 0 
950 0 
1000 0 
1050 0 
1100 0 
1150 0 
1200 0 
1250 0 
1300 0 
1350 0 
1400 0 
1450 0 
1500 5.62341E-042 
1550 2.87367E-038 
1600 5.64764E-035 
1650 4.89951E-032 
1700 1.92402E-029 
1750 4.23404E-027 
1800 5.02819E-025 
1850 3.8257E-023 
1900 1.85951E-021 
1950 6.19534E-020 
2000 1.50824E-018 
2050 2.69234E-017 
2100 3.6775E-016 
2150 4.01586E-015 
2200 3.58136E-014 
2250 2.65959E-013 
2300 1.65227E-012 
2350 8.8319E-012 
2400 4.13672E-011 
2450 1.71807E-010 
2500 6.39766E-010 
2550 2.15739E-009 
2600 6.64704E-009 
2650 1.8868E-008 
2700 4.97051E-008 
2750 1.22333E-007 
2800 2.82973E-007 
2850 6.1857E-007 
2900 1.28397E-006 
2950 2.53592E-006 
3000 4.77508E-006 
3050 8.64253E-006 
3100 1.5086E-005 
3150 2.54726E-005 
3200 4.1717E-005 
3250 6.63059E-005 
3300 0.000102022 
3350 0.000153349 
3400 0.000225592 
3450 0.000325344 
3500 0.00045727 
3550 0.000631261 
3600 0.00085828 
3650 0.00114882 
3700 0.00150685 
3750 0.00195369 
3800 0.0025057 
3850 0.00315704 
3900 0.0039393 
3950 0.00487459 
4000 0.00594097 
4050 0.00718677 
4100 0.00862995 
4150 0.0102321 
4200 0.01207 
4250 0.0141162 
4300 0.0163766 
4350 0.0189256 
4400 0.0216394 
4450 0.0246628 
4500 0.0279166 
4550 0.031428 
4600 0.0352448 
4650 0.0392471 
4700 0.04363 
4750 0.0481231 
4800 0.053009 
4850 0.0580372 
4900 0.0634106 
4950 0.0689533 
5000 0.0747935 
5050 0.0808177 
5100 0.0870995 
5150 0.0935664 
5200 0.100263 
5250 0.107127 
5300 0.11421 
5350 0.121418 
5400 0.128859 
5450 0.136359 
5500 0.14413 
5550 0.151866 
5600 0.15994 
5650 0.16786 
5700 0.176171 
5750 0.184261 
5800 0.192677 
5850 0.200996 
5900 0.209464 
5950 0.217996 
6000 0.226471 
6050 0.2352 
6100 0.243635 
6150 0.252373 
6200 0.260901 
6250 0.269537 
6300 0.278224 
6350 0.286722 
6400 0.295478 
6450 0.303888 
6500 0.312453 
6550 0.321003 
6600 0.329353 
6650 0.337919 
6700 0.34615 
6750 0.354459 
6800 0.362824 
6850 0.370863 
6900 0.379079 
6950 0.387113 
7000 0.395028 
7050 0.403106 
7100 0.410804 
7150 0.418557 
7200 0.426397 
7250 0.433824 
7300 0.44138 
7350 0.448899 
7400 0.456116 
7450 0.46345 
7500 0.470662 
7550 0.477646 
7600 0.484733 
7650 0.491654 
7700 0.498387 
7750 0.505212 
7800 0.51186 
7850 0.518331 
7900 0.524883 
7950 0.531279 
8000 0.537477 
8050 0.543748 
8100 0.549911 
8150 0.555833 
8200 0.561819 
8250 0.567772 
8300 0.573415 
8350 0.579114 
8400 0.58487 
8450 0.59024 
8500 0.595654 
8550 0.601117 
8600 0.606333 
8650 0.611466 
8700 0.616643 
8750 0.621722 
8800 0.626579 
8850 0.631474 
8900 0.636408 
8950 0.641021 
9000 0.645643 
9050 0.650298 
9100 0.654822 
9150 0.65918 
9200 0.663566 
9250 0.667981 
9300 0.672115 
9350 0.676243 
9400 0.680395 
9450 0.684481 
9500 0.68836 
9550 0.692261 
9600 0.696183 
9650 0.699947 
9700 0.703607 
9750 0.707287 
9800 0.710985 
9850 0.714464 
9900 0.717912 
9950 0.721377 
10000 0.724858 
10050 0.728086 
10100 0.731329 
10150 0.734587 
10200 0.737836 
10250 0.740867 
10300 0.743911 
10350 0.746968 
10400 0.750013 
10450 0.752858 
10500 0.755713 
10550 0.75858 
10600 0.761449 
10650 0.764115 
10700 0.766789 
10750 0.769474 
10800 0.772167 
10850 0.774683 
10900 0.777185 
10950 0.779695 
11000 0.782213 
11050 0.784609 
11100 0.786949 
11150 0.789295 
11200 0.791648 
11250 0.793942 
11300 0.796127 
11350 0.798317 
11400 0.800514 
11450 0.802717 
11500 0.804761 
11550 0.806804 
11600 0.808853 
11650 0.810907 
11700 0.812889 
11750 0.814794 
11800 0.816703 
11850 0.818618 
11900 0.820536 
11950 0.822322 
12000 0.824101 
12050 0.825883 
12100 0.827669 
12150 0.829423 
12200 0.831079 
12250 0.832739 
12300 0.834401 
12350 0.836068 
12400 0.83767 
12450 0.839215 
12500 0.840762 
12550 0.842312 
12600 0.843865 
12650 0.845338 
12700 0.846777 
12750 0.848217 
12800 0.84966 
12850 0.851106 
12900 0.85247 
12950 0.853809 
13000 0.855151 
13050 0.856494 
13100 0.857839 
13150 0.859112 
13200 0.860358 
13250 0.861606 
13300 0.862855 
13350 0.864106 
13400 0.865303 
13450 0.866461 
13500 0.867622 
13550 0.868783 
13600 0.869947 
13650 0.871079 
13700 0.872156 
13750 0.873234 
13800 0.874313 
13850 0.875394 
13900 0.876474 
13950 0.877474 
14000 0.878475 
14050 0.879478 
14100 0.880481 
14150 0.881486 
14200 0.882446 
14250 0.883375 
14300 0.884306 
14350 0.885238 
14400 0.886171 
14450 0.8871 
14500 0.887964 
14550 0.888828 
14600 0.889693 
14650 0.890559 
14700 0.891426 
14750 0.892267 
14800 0.893068 
14850 0.893871 
14900 0.894675 
14950 0.895479 
15000 0.896283 
15050 0.897049 
15100 0.897793 
15150 0.898538 
15200 0.899284 
15250 0.90003 
15300 0.900777 
15350 0.90148 
15400 0.902171 
15450 0.902863 
15500 0.903555 
15550 0.904248 
15600 0.904941 
15650 0.905593 
15700 0.906234 
15750 0.906876 
15800 0.907517 
15850 0.90816 
15900 0.908802 
15950 0.909412 
16000 0.910007 
16050 0.910602 
16100 0.911197 
16150 0.911793 
16200 0.912389 
16250 0.912965 
16300 0.913517 
16350 0.914068 
16400 0.914621 
16450 0.915173 
16500 0.915726 
16550 0.916274 
16600 0.916786 
16650 0.917297 
16700 0.917809 
16750 0.918321 
16800 0.918833 
16850 0.919346 
16900 0.919834 
16950 0.920308 
17000 0.920782 
17050 0.921257 
17100 0.921731 
17150 0.922207 
17200 0.92268 
17250 0.923119 
17300 0.923559 
17350 0.923998 
17400 0.924438 
17450 0.924878 
17500 0.925318 
17550 0.925748 
17600 0.926156 
17650 0.926563 
17700 0.926971 
17750 0.927379 
17800 0.927787 
17850 0.928195 
17900 0.928589 
17950 0.928966 
18000 0.929343 
18050 0.929721 
18100 0.930099 
18150 0.930477 
18200 0.930855 
18250 0.93122 
18300 0.93157 
18350 0.93192 
18400 0.93227 
18450 0.93262 
18500 0.932971 
18550 0.933321 
18600 0.933663 
18650 0.933987 
18700 0.934311 
18750 0.934635 
18800 0.934959 
18850 0.935284 
18900 0.935608 
18950 0.935931 
19000 0.936231 
19050 0.936532 
19100 0.936832 
19150 0.937133 
19200 0.937434 
19250 0.937735 
19300 0.938035 
19350 0.938321 
19400 0.938599 
19450 0.938878 
19500 0.939156 
19550 0.939435 
19600 0.939713 
19650 0.939992 
19700 0.940269 
19750 0.940526 
19800 0.940784 
19850 0.941042 
19900 0.9413 
19950 0.941558 
20000 0.941817 
20050 0.942075 
20100 0.942325 
20150 0.942564 
20200 0.942803 
20250 0.943042 
20300 0.943281 
20350 0.94352 
20400 0.94376 
20450 0.943999 
20500 0.944228 
20550 0.94445 
20600 0.944671 
20650 0.944893 
20700 0.945114 
20750 0.945336 
20800 0.945558 
20850 0.94578 
20900 0.945992 
20950 0.946197 
21000 0.946403 
21050 0.946608 
21100 0.946813 
21150 0.947019 
21200 0.947224 
21250 0.947429 
21300 0.947629 
21350 0.947819 
21400 0.948009 
21450 0.948199 
21500 0.94839 
21550 0.94858 
21600 0.94877 
21650 0.948961 
21700 0.94915 
21750 0.949326 
21800 0.949503 
21850 0.949679 
21900 0.949855 
21950 0.950032 
22000 0.950208 
22050 0.950384 
22100 0.950561 
22150 0.95073 
22200 0.950893 
22250 0.951056 
22300 0.95122 
22350 0.951383 
22400 0.951547 
22450 0.95171 
22500 0.951874 
22550 0.952037 
22600 0.95219 
22650 0.952341 
22700 0.952492 
22750 0.952644 
22800 0.952795 
22850 0.952947 
22900 0.953098 
22950 0.95325 
23000 0.9534 
23050 0.953541 
23100 0.953681 
23150 0.953822 
23200 0.953962 
23250 0.954102 
23300 0.954243 
23350 0.954383 
23400 0.954524 
23450 0.954663 
23500 0.954793 
23550 0.954924 
23600 0.955054 
23650 0.955184 
23700 0.955314 
23750 0.955444 
23800 0.955575 
23850 0.955705 
23900 0.955835 
23950 0.955956 
24000 0.956077 
24050 0.956198 
24100 0.956319 
24150 0.956439 
24200 0.95656 
24250 0.956681 
24300 0.956802 
24350 0.956923 
24400 0.957038 
24450 0.95715 
24500 0.957262 
24550 0.957374 
24600 0.957486 
24650 0.957598 
24700 0.95771 
24750 0.957822 
24800 0.957934 
24850 0.958045 
24900 0.958149 
24950 0.958253 
25000 0.958357 
25050 0.958461 
25100 0.958565 
25150 0.958669 
25200 0.958773 
25250 0.958877 
25300 0.958981 
25350 0.959082 
25400 0.959178 
25450 0.959275 
25500 0.959371 
25550 0.959467 
25600 0.959564 
25650 0.95966 
25700 0.959757 
25750 0.959853 
25800 0.95995 
25850 0.960043 
25900 0.960132 
25950 0.960222 
26000 0.960311 
26050 0.960401 
26100 0.96049 
26150 0.96058 
26200 0.960669 
26250 0.960758 
26300 0.960848 
26350 0.960935 
26400 0.961018 
26450 0.961101 
26500 0.961184 
26550 0.961267 
26600 0.96135 
26650 0.961433 
26700 0.961516 
26750 0.9616 
26800 0.961683 
26850 0.961765 
26900 0.961842 
26950 0.96192 
27000 0.961997 
27050 0.962074 
27100 0.962151 
27150 0.962228 
27200 0.962305 
27250 0.962382 
27300 0.962459 
27350 0.962537 
27400 0.962611 
27450 0.962682 
27500 0.962754 
27550 0.962825 
27600 0.962897 
27650 0.962969 
27700 0.96304 
27750 0.963112 
27800 0.963184 
27850 0.963255 
27900 0.963327 
27950 0.963394 
28000 0.963461 
28050 0.963527 
28100 0.963594 
28150 0.96366 
28200 0.963727 
28250 0.963793 
28300 0.96386 
28350 0.963926 
28400 0.963993 
28450 0.964059 
28500 0.964121 
28550 0.964183 
28600 0.964245 
28650 0.964307 
28700 0.964369 
28750 0.964431 
28800 0.964492 
28850 0.964554 
28900 0.964616 
28950 0.964678 
29000 0.96474 
29050 0.964798 
29100 0.964856 
29150 0.964913 
29200 0.964971 
29250 0.965028 
29300 0.965086 
29350 0.965143 
29400 0.965201 
29450 0.965258 
29500 0.965316 
29550 0.965373 
29600 0.965429 
29650 0.965482 
29700 0.965536 
29750 0.965589 
29800 0.965642 
29850 0.965696 
29900 0.965749 
29950 0.965803 
30000 0.965856 
30050 0.96591 
30100 0.965963 
30150 0.966017 
30200 0.966067 
30250 0.966117 
30300 0.966166 
30350 0.966216 
30400 0.966266 
30450 0.966316 
30500 0.966365 
30550 0.966415 
30600 0.966465 
30650 0.966515 
30700 0.966564 
30750 0.966614 
30800 0.96666 
30850 0.966706 
30900 0.966753 
30950 0.966799 
31000 0.966845 
31050 0.966891 
31100 0.966938 
31150 0.966984 
31200 0.96703 
31250 0.967077 
31300 0.967123 
31350 0.967169 
31400 0.967212 
31450 0.967255 
31500 0.967298 
31550 0.967341 
31600 0.967384 
31650 0.967428 
31700 0.967471 
31750 0.967514 
31800 0.967557 
31850 0.9676 
31900 0.967643 
31950 0.967686 
32000 0.967727 
32050 0.967767 
32100 0.967807 
32150 0.967847 
32200 0.967888 
32250 0.967928 
32300 0.967968 
32350 0.968008 
32400 0.968048 
32450 0.968088 
32500 0.968129 
32550 0.968169 
32600 0.968208 
32650 0.968245 
32700 0.968283 
32750 0.96832 
32800 0.968358 
32850 0.968395 
32900 0.968432 
32950 0.96847 
33000 0.968507 
33050 0.968545 
33100 0.968582 
33150 0.96862 
33200 0.968657 
33250 0.968693 
33300 0.968728 
33350 0.968763 
33400 0.968798 
33450 0.968833 
33500 0.968868 
33550 0.968902 
33600 0.968937 
33650 0.968972 
33700 0.969007 
33750 0.969042 
33800 0.969077 
33850 0.969112 
33900 0.969145 
33950 0.969178 
34000 0.969211 
34050 0.969243 
34100 0.969276 
34150 0.969308 
34200 0.969341 
34250 0.969373 
34300 0.969406 
34350 0.969439 
34400 0.969471 
34450 0.969504 
34500 0.969536 
34550 0.969568 
34600 0.969599 
34650 0.969629 
34700 0.969659 
34750 0.96969 
34800 0.96972 
34850 0.969751 
34900 0.969781 
34950 0.969811 
35000 0.969842 
35050 0.969872 
35100 0.969903 
35150 0.969933 
35200 0.969964 
35250 0.969992 
35300 0.970021 
35350 0.970049 
35400 0.970078 
35450 0.970106 
35500 0.970134 
35550 0.970163 
35600 0.970191 
35650 0.97022 
35700 0.970248 
35750 0.970276 
35800 0.970305 
35850 0.970333 
35900 0.970361 
35950 0.970388 
36000 0.970415 
36050 0.970441 
36100 0.970468 
36150 0.970494 
36200 0.970521 
36250 0.970547 
36300 0.970574 
36350 0.9706 
36400 0.970627 
36450 0.970654 
36500 0.97068 
36550 0.970707 
36600 0.970733 
36650 0.970758 
36700 0.970783 
36750 0.970808 
36800 0.970832 
36850 0.970857 
36900 0.970882 
36950 0.970907 
37000 0.970932 
37050 0.970957 
37100 0.970982 
37150 0.971006 
37200 0.971031 
37250 0.971056 
37300 0.971081 
37350 0.971105 
37400 0.971128 
37450 0.971151 
37500 0.971174 
37550 0.971198 
37600 0.971221 
37650 0.971244 
37700 0.971267 
37750 0.971291 
37800 0.971314 
37850 0.971337 
37900 0.97136 
37950 0.971384 
38000 0.971407 
38050 0.97143 
38100 0.971452 
38150 0.971473 
38200 0.971495 
38250 0.971517 
38300 0.971539 
38350 0.97156 
38400 0.971582 
38450 0.971604 
38500 0.971626 
38550 0.971648 
38600 0.971669 
38650 0.971691 
38700 0.971713 
38750 0.971735 
38800 0.971756 
38850 0.971777 
38900 0.971797 
38950 0.971817 
39000 0.971838 
39050 0.971858 
39100 0.971879 
39150 0.971899 
39200 0.971919 
39250 0.97194 
39300 0.97196 
39350 0.971981 
39400 0.972001 
39450 0.972022 
39500 0.972042 
39550 0.972062 
39600 0.972081 
39650 0.9721 
39700 0.97212 
39750 0.972139 
39800 0.972158 
39850 0.972177 
39900 0.972196 
39950 0.972215 
40000 0.972235 
40050 0.972254 
40100 0.972273 
40150 0.972292 
40200 0.972311 
40250 0.97233 
40300 0.97235 
40350 0.972368 
40400 0.972386 
40450 0.972404 
40500 0.972422 
40550 0.97244 
40600 0.972458 
40650 0.972476 
40700 0.972494 
40750 0.972512 
40800 0.97253 
40850 0.972548 
40900 0.972566 
40950 0.972584 
41000 0.972602 
41050 0.97262 
41100 0.972638 
41150 0.972655 
41200 0.972671 
41250 0.972688 
41300 0.972705 
41350 0.972722 
41400 0.972739 
41450 0.972756 
41500 0.972773 
41550 0.97279 
41600 0.972807 
41650 0.972824 
41700 0.97284 
41750 0.972857 
41800 0.972874 
41850 0.972891 
41900 0.972908 
41950 0.972924 
42000 0.97294 
42050 0.972956 
42100 0.972972 
42150 0.972988 
42200 0.973004 
42250 0.973019 
42300 0.973035 
42350 0.973051 
42400 0.973067 
42450 0.973083 
42500 0.973099 
42550 0.973115 
42600 0.973131 
42650 0.973147 
42700 0.973162 
42750 0.973178 
42800 0.973193 
42850 0.973208 
42900 0.973223 
42950 0.973238 
43000 0.973253 
43050 0.973268 
43100 0.973283 
43150 0.973298 
43200 0.973313 
43250 0.973328 
43300 0.973342 
43350 0.973357 
43400 0.973372 
43450 0.973387 
43500 0.973402 
43550 0.973417 
43600 0.973432 
43650 0.973446 
43700 0.97346 
43750 0.973474 
43800 0.973488 
43850 0.973502 
43900 0.973516 
43950 0.97353 
44000 0.973544 
44050 0.973559 
44100 0.973573 
44150 0.973587 
44200 0.973601 
44250 0.973615 
44300 0.973629 
44350 0.973643 
44400 0.973657 
44450 0.973671 
44500 0.973684 
44550 0.973697 
44600 0.973711 
44650 0.973724 
44700 0.973737 
44750 0.973751 
44800 0.973764 
44850 0.973777 
44900 0.97379 
44950 0.973804 
45000 0.973817 
45050 0.97383 
45100 0.973844 
45150 0.973857 
45200 0.97387 
45250 0.973884 
45300 0.973897 
45350 0.973909 
45400 0.973922 
45450 0.973934 
45500 0.973947 
45550 0.973959 
45600 0.973972 
45650 0.973984 
45700 0.973997 
45750 0.97401 
45800 0.974022 
45850 0.974035 
45900 0.974047 
45950 0.97406 
46000 0.974072 
46050 0.974085 
46100 0.974097 
46150 0.97411 
46200 0.974122 
46250 0.974134 
46300 0.974146 
46350 0.974158 
46400 0.97417 
46450 0.974182 
46500 0.974193 
46550 0.974205 
46600 0.974217 
46650 0.974229 
46700 0.974241 
46750 0.974253 
46800 0.974265 
46850 0.974277 
46900 0.974288 
46950 0.9743 
47000 0.974312 
47050 0.974324 
47100 0.974336 
47150 0.974347 
47200 0.974358 
47250 0.974369 
47300 0.97438 
47350 0.974392 
47400 0.974403 
47450 0.974414 
47500 0.974425 
47550 0.974437 
47600 0.974448 
47650 0.974459 
47700 0.97447 
47750 0.974482 
47800 0.974493 
47850 0.974504 
47900 0.974515 
47950 0.974526 
48000 0.974538 
48050 0.974548 
48100 0.974559 
48150 0.974569 
48200 0.97458 
48250 0.974591 
48300 0.974601 
48350 0.974612 
48400 0.974623 
48450 0.974633 
48500 0.974644 
48550 0.974655 
48600 0.974665 
48650 0.974676 
48700 0.974687 
48750 0.974697 
48800 0.974708 
48850 0.974718 
48900 0.974729 
48950 0.97474 
49000 0.97475 
49050 0.97476 
49100 0.97477 
49150 0.97478 
49200 0.97479 
49250 0.9748 
49300 0.97481 
49350 0.97482 
49400 0.97483 
49450 0.97484 
49500 0.974851 
49550 0.974861 
49600 0.974871 
49650 0.974881 
49700 0.974891 
49750 0.974901 
49800 0.974911 
49850 0.974921 
49900 0.974931 
49950 0.974941 
50000 0.97495 
50050 0.97496 
50100 0.974969 
50150 0.974979 
50200 0.974989 
50250 0.974998 
50300 0.975008 
50350 0.975017 
50400 0.975027 
50450 0.975037 
50500 0.975046 
50550 0.975056 
50600 0.975065 
50650 0.975075 
50700 0.975084 
50750 0.975094 
50800 0.975104 
50850 0.975113 
50900 0.975122 
50950 0.975131 
51000 0.975141 
51050 0.97515 
51100 0.975159 
51150 0.975168 
51200 0.975177 
51250 0.975186 
51300 0.975195 
51350 0.975204 
51400 0.975213 
51450 0.975222 
51500 0.975232 
51550 0.975241 
51600 0.97525 
51650 0.975259 
51700 0.975268 
51750 0.975277 
51800 0.975286 
51850 0.975295 
51900 0.975304 
51950 0.975313 
52000 0.975321 
52050 0.97533 
52100 0.975339 
52150 0.975347 
52200 0.975356 
52250 0.975365 
52300 0.975373 
52350 0.975382 
52400 0.975391 
52450 0.975399 
52500 0.975408 
52550 0.975417 
52600 0.975425 
52650 0.975434 
52700 0.975443 
52750 0.975451 
52800 0.97546 
52850 0.975469 
52900 0.975477 
52950 0.975485 
53000 0.975494 
53050 0.975502 
53100 0.97551 
53150 0.975518 
53200 0.975527 
53250 0.975535 
53300 0.975543 
53350 0.975551 
53400 0.97556 
53450 0.975568 
53500 0.975576 
53550 0.975584 
53600 0.975593 
53650 0.975601 
53700 0.975609 
53750 0.975617 
53800 0.975626 
53850 0.975634 
53900 0.975642 
53950 0.97565 
54000 0.975658 
54050 0.975666 
54100 0.975673 
54150 0.975681 
54200 0.975689 
54250 0.975697 
54300 0.975705 
54350 0.975713 
54400 0.975721 
54450 0.975729 
54500 0.975736 
54550 0.975744 
54600 0.975752 
54650 0.97576 
54700 0.975768 
54750 0.975776 
54800 0.975784 
54850 0.975791 
54900 0.975799 
54950 0.975807 
55000 0.975815 
55050 0.975822 
55100 0.97583 
55150 0.975837 
55200 0.975845 
55250 0.975852 
55300 0.97586 
55350 0.975867 
55400 0.975875 
55450 0.975882 
55500 0.97589 
55550 0.975897 
55600 0.975905 
55650 0.975912 
55700 0.97592 
55750 0.975927 
55800 0.975935 
55850 0.975942 
55900 0.97595 
55950 0.975957 
56000 0.975965 
56050 0.975972 
56100 0.975979 
56150 0.975986 
56200 0.975994 
56250 0.976001 
56300 0.976008 
56350 0.976015 
56400 0.976022 
56450 0.976029 
56500 0.976037 
56550 0.976044 
56600 0.976051 
56650 0.976058 
56700 0.976065 
56750 0.976072 
56800 0.97608 
56850 0.976087 
56900 0.976094 
56950 0.976101 
57000 0.976108 
57050 0.976115 
57100 0.976123 
57150 0.97613 
57200 0.976136 
57250 0.976143 
57300 0.97615 
57350 0.976157 
57400 0.976164 
57450 0.976171 
57500 0.976178 
57550 0.976184 
57600 0.976191 
57650 0.976198 
57700 0.976205 
57750 0.976212 
57800 0.976219 
57850 0.976225 
57900 0.976232 
57950 0.976239 
58000 0.976246 
58050 0.976253 
58100 0.97626 
58150 0.976267 
58200 0.976273 
58250 0.97628 
58300 0.976287 
58350 0.976293 
58400 0.9763 
58450 0.976306 
58500 0.976313 
58550 0.97632 
58600 0.976326 
58650 0.976333 
58700 0.976339 
58750 0.976346 
58800 0.976352 
58850 0.976359 
58900 0.976366 
58950 0.976372 
59000 0.976379 
59050 0.976385 
59100 0.976392 
59150 0.976398 
59200 0.976405 
59250 0.976411 
59300 0.976418 
59350 0.976425 
59400 0.976431 
59450 0.976437 
59500 0.976444 
59550 0.97645 
59600 0.976456 
59650 0.976462 
59700 0.976469 
59750 0.976475 
59800 0.976481 
59850 0.976487 
59900 0.976494 
59950 0.9765 
60000 0.976506 
60050 0.976513 
60100 0.976519 
60150 0.976525 
60200 0.976531 
60250 0.976538 
60300 0.976544 
60350 0.97655 
60400 0.976557 
60450 0.976563 
60500 0.976569 
60550 0.976575 
60600 0.976581 
60650 0.976587 
60700 0.976593 
60750 0.976599 
60800 0.976605 
60850 0.976611 
60900 0.976617 
60950 0.976623 
61000 0.976629 
61050 0.976636 
61100 0.976642 
61150 0.976648 
61200 0.976654 
61250 0.97666 
61300 0.976666 
61350 0.976672 
61400 0.976678 
61450 0.976684 
61500 0.97669 
61550 0.976696 
61600 0.976702 
61650 0.976708 
61700 0.976714 
61750 0.97672 
61800 0.976725 
61850 0.976731 
61900 0.976737 
61950 0.976743 
62000 0.976749 
62050 0.976754 
62100 0.97676 
62150 0.976766 
62200 0.976772 
62250 0.976777 
62300 0.976783 
62350 0.976789 
62400 0.976795 
62450 0.976801 
62500 0.976806 
62550 0.976812 
62600 0.976818 
62650 0.976824 
62700 0.976829 
62750 0.976835 
62800 0.976841 
62850 0.976847 
62900 0.976853 
62950 0.976858 
63000 0.976864 
63050 0.976869 
63100 0.976875 
63150 0.97688 
63200 0.976886 
63250 0.976892 
63300 0.976897 
63350 0.976903 
63400 0.976908 
63450 0.976914 
63500 0.976919 
63550 0.976925 
63600 0.97693 
63650 0.976936 
63700 0.976942 
63750 0.976947 
63800 0.976953 
63850 0.976958 
63900 0.976964 
63950 0.976969 
64000 0.976975 
64050 0.97698 
64100 0.976986 
64150 0.976992 
64200 0.976997 
64250 0.977002 
64300 0.977008 
64350 0.977013 
64400 0.977018 
64450 0.977024 
64500 0.977029 
64550 0.977034 
64600 0.97704 
64650 0.977045 
64700 0.97705 
64750 0.977056 
64800 0.977061 
64850 0.977066 
64900 0.977072 
64950 0.977077 
65000 0.977082 
65050 0.977088 
65100 0.977093 
65150 0.977098 
65200 0.977104 
65250 0.977109 
65300 0.977114 
65350 0.97712 
65400 0.977125 
65450 0.97713 
65500 0.977135 
65550 0.977141 
65600 0.977146 
65650 0.977151 
65700 0.977156 
65750 0.977161 
65800 0.977166 
65850 0.977171 
65900 0.977177 
65950 0.977182 
66000 0.977187 
66050 0.977192 
66100 0.977197 
66150 0.977202 
66200 0.977207 
66250 0.977213 
66300 0.977218 
66350 0.977223 
66400 0.977228 
66450 0.977233 
66500 0.977238 
66550 0.977243 
66600 0.977249 
66650 0.977254 
66700 0.977259 
66750 0.977264 
66800 0.977269 
66850 0.977274 
66900 0.977279 
66950 0.977284 
67000 0.977289 
67050 0.977294 
67100 0.977298 
67150 0.977304 
67200 0.977308 
67250 0.977313 
67300 0.977318 
67350 0.977323 
67400 0.977328 
67450 0.977333 
67500 0.977338 
67550 0.977343 
67600 0.977348 
67650 0.977353 
67700 0.977358 
67750 0.977363 
67800 0.977368 
67850 0.977373 
67900 0.977378 
67950 0.977383 
68000 0.977388 
68050 0.977393 
68100 0.977397 
68150 0.977402 
68200 0.977407 
68250 0.977412 
68300 0.977416 
68350 0.977421 
68400 0.977426 
68450 0.977431 
68500 0.977436 
68550 0.97744 
68600 0.977445 
68650 0.97745 
68700 0.977455 
68750 0.977459 
68800 0.977464 
68850 0.977469 
68900 0.977474 
68950 0.977479 
69000 0.977483 
69050 0.977488 
69100 0.977493 
69150 0.977498 
69200 0.977503 
69250 0.977507 
69300 0.977512 
69350 0.977517 
69400 0.977521 
69450 0.977526 
69500 0.977531 
69550 0.977535 
69600 0.97754 
69650 0.977545 
69700 0.977549 
69750 0.977554 
69800 0.977558 
69850 0.977563 
69900 0.977568 
69950 0.977572 
70000 0.977577 
70050 0.977582 
70100 0.977586 
70150 0.977591 
70200 0.977595 
70250 0.9776 
70300 0.977605 
70350 0.977609 
70400 0.977614 
70450 0.977619 
70500 0.977623 
70550 0.977628 
70600 0.977632 
70650 0.977637 
70700 0.977642 
70750 0.977646 
70800 0.977651 
70850 0.977655 
70900 0.977659 
70950 0.977664 
71000 0.977668 
71050 0.977673 
71100 0.977677 
71150 0.977682 
71200 0.977686 
71250 0.977691 
71300 0.977695 
71350 0.9777 
71400 0.977704 
71450 0.977709 
71500 0.977713 
71550 0.977718 
71600 0.977722 
71650 0.977726 
71700 0.977731 
71750 0.977735 
71800 0.97774 
71850 0.977744 
71900 0.977749 
71950 0.977753 
72000 0.977758 
72050 0.977762 
72100 0.977767 
72150 0.977771 
72200 0.977775 
72250 0.97778 
72300 0.977784 
72350 0.977788 
72400 0.977793 
72450 0.977797 
72500 0.977801 
72550 0.977806 
72600 0.97781 
72650 0.977814 
72700 0.977818 
72750 0.977823 
72800 0.977827 
72850 0.977831 
72900 0.977836 
72950 0.97784 
73000 0.977844 
73050 0.977849 
73100 0.977853 
73150 0.977857 
73200 0.977862 
73250 0.977866 
73300 0.97787 
73350 0.977875 
73400 0.977879 
73450 0.977883 
73500 0.977888 
73550 0.977892 
73600 0.977896 
73650 0.9779 
73700 0.977904 
73750 0.977909 
73800 0.977913 
73850 0.977917 
73900 0.977921 
73950 0.977925 
74000 0.977929 
74050 0.977934 
74100 0.977938 
74150 0.977942 
74200 0.977946 
74250 0.97795 
74300 0.977955 
74350 0.977959 
74400 0.977963 
74450 0.977967 
74500 0.977971 
74550 0.977976 
74600 0.97798 
74650 0.977984 
74700 0.977988 
74750 0.977992 
74800 0.977996 
74850 0.978001 
74900 0.978005 
74950 0.978009 
75000 0.978013 
75050 0.978017 
75100 0.978021 
75150 0.978025 
75200 0.978029 
75250 0.978033 
75300 0.978037 
75350 0.978041 
75400 0.978045 
75450 0.97805 
75500 0.978054 
75550 0.978058 
75600 0.978062 
75650 0.978066 
75700 0.97807 
75750 0.978074 
75800 0.978078 
75850 0.978082 
75900 0.978086 
75950 0.97809 
76000 0.978094 
76050 0.978098 
76100 0.978102 
76150 0.978106 
76200 0.97811 
76250 0.978114 
76300 0.978119 
76350 0.978123 
76400 0.978127 
76450 0.978131 
76500 0.978135 
76550 0.978138 
76600 0.978142 
76650 0.978146 
76700 0.97815 
76750 0.978154 
76800 0.978158 
76850 0.978162 
76900 0.978166 
76950 0.97817 
77000 0.978174 
77050 0.978178 
77100 0.978182 
77150 0.978186 
77200 0.97819 
77250 0.978194 
77300 0.978198 
77350 0.978202 
77400 0.978205 
77450 0.978209 
77500 0.978213 
77550 0.978217 
77600 0.978221 
77650 0.978225 
77700 0.978229 
77750 0.978233 
77800 0.978237 
77850 0.978241 
77900 0.978245 
77950 0.978249 
78000 0.978252 
78050 0.978256 
78100 0.97826 
78150 0.978264 
78200 0.978268 
78250 0.978272 
78300 0.978275 
78350 0.978279 
78400 0.978283 
78450 0.978287 
78500 0.978291 
78550 0.978294 
78600 0.978298 
78650 0.978302 
78700 0.978306 
78750 0.97831 
78800 0.978314 
78850 0.978317 
78900 0.978321 
78950 0.978325 
79000 0.978329 
79050 0.978333 
79100 0.978337 
79150 0.97834 
79200 0.978344 
79250 0.978348 
79300 0.978352 
79350 0.978356 
79400 0.97836 
79450 0.978363 
79500 0.978367 
79550 0.978371 
79600 0.978374 
79650 0.978378 
79700 0.978382 
79750 0.978386 
79800 0.978389 
79850 0.978393 
79900 0.978397 
79950 0.9784 
80000 0.978404 
80050 0.978408 
80100 0.978412 
80150 0.978415 
80200 0.978419 
80250 0.978423 
80300 0.978426 
80350 0.97843 
80400 0.978434 
80450 0.978438 
80500 0.978441 
80550 0.978445 
80600 0.978449 
80650 0.978453 
80700 0.978456 
80750 0.97846 
80800 0.978464 
80850 0.978467 
80900 0.978471 
80950 0.978475 
81000 0.978478 
81050 0.978482 
81100 0.978486 
81150 0.978489 
81200 0.978493 
81250 0.978496 
81300 0.9785 
81350 0.978504 
81400 0.978507 
81450 0.978511 
81500 0.978515 
81550 0.978518 
81600 0.978522 
81650 0.978525 
81700 0.978529 
81750 0.978533 
81800 0.978536 
81850 0.97854 
81900 0.978544 
81950 0.978547 
82000 0.978551 
82050 0.978554 
82100 0.978558 
82150 0.978562 
82200 0.978565 
82250 0.978569 
82300 0.978572 
82350 0.978576 
82400 0.97858 
82450 0.978583 
82500 0.978587 
82550 0.97859 
82600 0.978594 
82650 0.978598 
82700 0.978601 
82750 0.978605 
82800 0.978608 
82850 0.978612 
82900 0.978615 
82950 0.978619 
83000 0.978622 
83050 0.978626 
83100 0.978629 
83150 0.978633 
83200 0.978636 
83250 0.97864 
83300 0.978643 
83350 0.978647 
83400 0.97865 
83450 0.978654 
83500 0.978657 
83550 0.978661 
83600 0.978664 
83650 0.978668 
83700 0.978671 
83750 0.978675 
83800 0.978678 
83850 0.978682 
83900 0.978685 
83950 0.978689 
84000 0.978693 
84050 0.978696 
84100 0.9787 
84150 0.978703 
84200 0.978707 
84250 0.97871 
84300 0.978713 
84350 0.978717 
84400 0.97872 
84450 0.978724 
84500 0.978727 
84550 0.97873 
84600 0.978734 
84650 0.978737 
84700 0.978741 
84750 0.978744 
84800 0.978748 
84850 0.978751 
84900 0.978755 
84950 0.978758 
85000 0.978761 
85050 0.978765 
85100 0.978768 
85150 0.978772 
85200 0.978775 
85250 0.978778 
85300 0.978782 
85350 0.978785 
85400 0.978789 
85450 0.978792 
85500 0.978796 
85550 0.978799 
85600 0.978802 
85650 0.978806 
85700 0.978809 
85750 0.978813 
85800 0.978816 
85850 0.978819 
85900 0.978823 
85950 0.978826 
86000 0.97883 
86050 0.978833 
86100 0.978836 
86150 0.97884 
86200 0.978843 
86250 0.978846 
86300 0.97885 
86350 0.978853 
86400 0.978856 
86450 0.97886 
86500 0.978863 
86550 0.978866 
86600 0.97887 
86650 0.978873 
86700 0.978876 
86750 0.97888 
86800 0.978883 
86850 0.978886 
86900 0.97889 
86950 0.978893 
87000 0.978896 
87050 0.9789 
87100 0.978903 
87150 0.978906 
87200 0.97891 
87250 0.978913 
87300 0.978916 
87350 0.97892 
87400 0.978923 
87450 0.978926 
87500 0.97893 
87550 0.978933 
87600 0.978936 
87650 0.978939 
87700 0.978943 
87750 0.978946 
87800 0.978949 
87850 0.978952 
87900 0.978956 
87950 0.978959 
88000 0.978962 
88050 0.978965 
88100 0.978969 
88150 0.978972 
88200 0.978975 
88250 0.978978 
88300 0.978982 
88350 0.978985 
88400 0.978988 
88450 0.978991 
88500 0.978995 
88550 0.978998 
88600 0.979001 
88650 0.979004 
88700 0.979008 
88750 0.979011 
88800 0.979014 
88850 0.979017 
88900 0.979021 
88950 0.979024 
89000 0.979027 
89050 0.97903 
89100 0.979034 
89150 0.979037 
89200 0.97904 
89250 0.979043 
89300 0.979046 
89350 0.97905 
89400 0.979053 
89450 0.979056 
89500 0.979059 
89550 0.979062 
89600 0.979066 
89650 0.979069 
89700 0.979072 
89750 0.979075 
89800 0.979078 
89850 0.979081 
89900 0.979085 
89950 0.979088 
90000 0.979091 
90050 0.979094 
90100 0.979097 
90150 0.9791 
90200 0.979104 
90250 0.979107 
90300 0.97911 
90350 0.979113 
90400 0.979116 
90450 0.979119 
90500 0.979123 
90550 0.979126 
90600 0.979129 
90650 0.979132 
90700 0.979135 
90750 0.979138 
90800 0.979142 
90850 0.979145 
90900 0.979148 
90950 0.979151 
91000 0.979154 
91050 0.979157 
91100 0.97916 
91150 0.979164 
91200 0.979167 
91250 0.97917 
91300 0.979173 
91350 0.979176 
91400 0.979179 
91450 0.979182 
91500 0.979185 
91550 0.979188 
91600 0.979191 
91650 0.979194 
91700 0.979198 
91750 0.979201 
91800 0.979204 
91850 0.979207 
91900 0.97921 
91950 0.979213 
92000 0.979216 
92050 0.979219 
92100 0.979222 
92150 0.979225 
92200 0.979228 
92250 0.979232 
92300 0.979235 
92350 0.979238 
92400 0.979241 
92450 0.979244 
92500 0.979247 
92550 0.97925 
92600 0.979253 
92650 0.979256 
92700 0.979259 
92750 0.979262 
92800 0.979266 
92850 0.979268 
92900 0.979272 
92950 0.979275 
93000 0.979278 
93050 0.979281 
93100 0.979284 
93150 0.979287 
93200 0.97929 
93250 0.979293 
93300 0.979296 
93350 0.979299 
93400 0.979302 
93450 0.979305 
93500 0.979308 
93550 0.979311 
93600 0.979314 
93650 0.979317 
93700 0.97932 
93750 0.979323 
93800 0.979326 
93850 0.979329 
93900 0.979332 
93950 0.979335 
94000 0.979338 
94050 0.979341 
94100 0.979344 
94150 0.979347 
94200 0.97935 
94250 0.979353 
94300 0.979356 
94350 0.979359 
94400 0.979362 
94450 0.979365 
94500 0.979368 
94550 0.979371 
94600 0.979374 
94650 0.979377 
94700 0.97938 
94750 0.979383 
94800 0.979386 
94850 0.979389 
94900 0.979392 
94950 0.979395 
95000 0.979398 
95050 0.979401 
95100 0.979404 
95150 0.979407 
95200 0.979409 
95250 0.979412 
95300 0.979415 
95350 0.979418 
95400 0.979421 
95450 0.979424 
95500 0.979427 
95550 0.97943 
95600 0.979433 
95650 0.979436 
95700 0.979439 
95750 0.979442 
95800 0.979445 
95850 0.979448 
95900 0.979451 
95950 0.979454 
96000 0.979457 
96050 0.97946 
96100 0.979463 
96150 0.979465 
96200 0.979468 
96250 0.979471 
96300 0.979474 
96350 0.979477 
96400 0.97948 
96450 0.979483 
96500 0.979486 
96550 0.979489 
96600 0.979492 
96650 0.979495 
96700 0.979497 
96750 0.9795 
96800 0.979503 
96850 0.979506 
96900 0.979509 
96950 0.979512 
97000 0.979515 
97050 0.979518 
97100 0.979521 
97150 0.979523 
97200 0.979526 
97250 0.979529 
97300 0.979532 
97350 0.979535 
97400 0.979538 
97450 0.979541 
97500 0.979544 
97550 0.979546 
97600 0.979549 
97650 0.979552 
97700 0.979555 
97750 0.979558 
97800 0.979561 
97850 0.979564 
97900 0.979567 
97950 0.979569 
98000 0.979572 
98050 0.979575 
98100 0.979578 
98150 0.979581 
98200 0.979584 
98250 0.979587 
98300 0.97959 
98350 0.979592 
98400 0.979595 
98450 0.979598 
98500 0.979601 
98550 0.979604 
98600 0.979607 
98650 0.979609 
98700 0.979612 
98750 0.979615 
98800 0.979618 
98850 0.979621 
98900 0.979623 
98950 0.979626 
99000 0.979629 
99050 0.979632 
99100 0.979635 
99150 0.979637 
99200 0.97964 
99250 0.979643 
99300 0.979646 
99350 0.979649 
99400 0.979652 
99450 0.979654 
99500 0.979657 
99550 0.97966 
99600 0.979663 
99650 0.979666 
99700 0.979668 
99750 0.979671 
99800 0.979674 
99850 0.979677 
99900 0.97968 
99950 0.979682 
100000 0.979685 
