# DIAMOND LIGHT SOURCE
# Instrument: I20-XAS Date: Tue, 29 May 2012 11:29:46 BST
# Ring energy: 3.00086 GeV
# Initial ring current: 298.39219 mA
# Filling mode: Remote Fill
# Wiggler gap selected: 25.00000 mm
#  
# Primary slits:  vertical gap= 0.12005 mm; horizontal gap= 0.80003 mm; vertical offset= 0.01994 mm; horizontal offset= -0.00005 mm
# Secondary slits:  vertical gap= 6.00000 mm; horizontal gap= 24.50300 mm; vertical offset= 0.00000 mm; horizontal offset= -0.00150 mm
# Experimental slits:  vertical gap= 12.00000 mm; horizontal gap= 12.79992 mm; vertical offset= 0.00000 mm; horizontal offset= -0.00017 mm
#  
# Optic Hutch Mirrors Coating: Rhodium
# Monochromator crystal cut: Si(111)
# Incident angle for Harmonic Rejection Mirrors: -6.39 mrad
# Harmonic rejection mirrors coating: Si 7keV
# I0 Stanford sensitivity: 10 uA/V
# It Stanford sensitivity: 1 uA/V
#
# Ascii output file name: 'Mn foil_21457.dat'
# Nexus output file: '/dls/i20/data/2012/cm5715-2/Mn_foil_XAS/nexus/Mn foil_21457.nxs'
# The XML files, ScanParameters, SampleParameters, DetectorParameters, OutputParameters
# are stored in the nexus file.
#
# Sample description: Please add a description...
#
#
# Dark current intensity (Hz): I0      0   It      0   Iref      0
# Dark current has been automatically removed from counts in main scan (I0,It,Iref)
#
# Energy	lnI0It          	
6339.0000	-0.71270
6341.0000	-0.71500
6343.0000	-0.71780
6345.0000	-0.72080
6347.0000	-0.72370
6349.0000	-0.72600
6351.0000	-0.72920
6353.0000	-0.73250
6355.0000	-0.73500
6357.0000	-0.73780
6359.0000	-0.74090
6361.0000	-0.74320
6363.0000	-0.74620
6365.0000	-0.74940
6367.0000	-0.75230
6369.0000	-0.75520
6371.0000	-0.75760
6373.0000	-0.76020
6375.0000	-0.76250
6377.0000	-0.76640
6379.0000	-0.76880
6381.0000	-0.77180
6383.0000	-0.77490
6385.0000	-0.77730
6387.0000	-0.77980
6389.0000	-0.78280
6391.0000	-0.78580
6393.0000	-0.78810
6395.0000	-0.79100
6397.0000	-0.79240
6399.0000	-0.79670
6401.0000	-0.79950
6403.0000	-0.80240
6405.0000	-0.80510
6407.0000	-0.80790
6409.0000	-0.81070
6411.0000	-0.81370
6413.0000	-0.81620
6415.0000	-0.81860
6417.0000	-0.82180
6419.0000	-0.82400
6421.0000	-0.82710
6423.0000	-0.82990
6425.0000	-0.83220
6427.0000	-0.83510
6429.0000	-0.83830
6431.0000	-0.84070
6433.0000	-0.84330
6435.0000	-0.84640
6437.0000	-0.84870
6439.0000	-0.85170
6441.0000	-0.85340
6443.0000	-0.85730
6445.0000	-0.85950
6447.0000	-0.86210
6449.0000	-0.86500
6451.0000	-0.86810
6453.0000	-0.87010
6455.0000	-0.87280
6457.0000	-0.87610
6459.0000	-0.87800
6461.0000	-0.88080
6463.0000	-0.88370
6465.0000	-0.88620
6467.0000	-0.88930
6469.0000	-0.89200
6471.0000	-0.89430
6473.0000	-0.89700
6475.0000	-0.89940
6477.0000	-0.90230
6479.0000	-0.90450
6481.0000	-0.90680
6483.0000	-0.90960
6485.0000	-0.91210
6487.0000	-0.91450
6489.0000	-0.91810
6491.0000	-0.91990
6493.0000	-0.92290
6495.0000	-0.92560
6497.0000	-0.92790
6499.0000	-0.93040
6501.0000	-0.93240
6503.0000	-0.93530
6505.0000	-0.93700
6507.0000	-0.94040
6509.0000	-0.94280
6511.0000	-0.94450
6513.0000	-0.94640
6515.0000	-0.94900
6516.9300	-0.95140
6518.6900	-0.95320
6520.3000	-0.95420
6521.7600	-0.95530
6523.0700	-0.95670
6524.2400	-0.95740
6525.2500	-0.95770
6526.1100	-0.95810
6526.8300	-0.95850
6527.4000	-0.95810
6527.9000	-0.95850
6528.4000	-0.95850
6528.9000	-0.95820
6529.4000	-0.95840
6529.9000	-0.95770
6530.4000	-0.95710
6530.9000	-0.95650
6531.4000	-0.95580
6531.9000	-0.95440
6532.4000	-0.95290
6532.9000	-0.95060
6533.4000	-0.94740
6533.9000	-0.94220
6534.4000	-0.93490
6534.9000	-0.92260
6535.4000	-0.89740
6535.9000	-0.84310
6536.4000	-0.76500
6536.9000	-0.70240
6537.4000	-0.65920
6537.9000	-0.62640
6538.4000	-0.59800
6538.9000	-0.57500
6539.4000	-0.56000
6539.9000	-0.55360
6540.4000	-0.54810
6540.9000	-0.53450
6541.4000	-0.51400
6541.9000	-0.48990
6542.4000	-0.46720
6542.9000	-0.44400
6543.4000	-0.41910
6543.9000	-0.39070
6544.4000	-0.35970
6544.9000	-0.32530
6545.4000	-0.28840
6545.9000	-0.24810
6546.4000	-0.20690
6546.9000	-0.16410
6547.4000	-0.11940
6547.9000	-0.07371
6548.4000	-0.02891
6548.9000	0.01335
6549.4000	0.05362
6549.9000	0.09378
6550.4000	0.13190
6550.6000	0.14660
6551.1200	0.18430
6551.7000	0.21990
6552.3300	0.24880
6553.0500	0.26200
6553.8500	0.24930
6554.7500	0.21090
6555.7700	0.15860
6556.9100	0.11380
6558.1800	0.08936
6559.6000	0.08649
6561.1000	0.09654
6562.6000	0.10790
6564.1000	0.11380
6565.6000	0.11410
6567.1000	0.10870
6568.6000	0.10250
6570.1000	0.09903
6571.6000	0.10050
6573.1000	0.10810
6574.6000	0.11970
6576.1000	0.13050
6577.6000	0.14310
6579.1000	0.15490
6580.6000	0.16520
6582.1000	0.17060
6583.6000	0.16860
6585.1000	0.15680
6586.6000	0.13880
6588.1000	0.12040
6589.6000	0.10480
6591.1000	0.09251
6592.6000	0.08130
6594.1000	0.06867
6595.6000	0.05799
6597.1000	0.04854
6598.6000	0.04313
6600.1000	0.04134
6601.6000	0.04194
6603.1000	0.04354
6604.6000	0.04659
6606.1000	0.05100
6607.6000	0.05551
6609.1000	0.05982
6610.6000	0.06420
6612.1000	0.06774
6613.6000	0.06910
6615.1000	0.06969
6616.6000	0.06892
6618.1000	0.06731
6619.6000	0.06498
6621.1000	0.06081
6622.6000	0.05649
6624.1000	0.05091
6625.6000	0.04558
6627.1000	0.04020
6628.6000	0.03575
6630.1000	0.03139
6631.6000	0.02792
6633.1000	0.02657
6634.6000	0.02502
6636.1000	0.02326
6637.6000	0.02142
6639.1000	0.01964
6640.6000	0.01624
6642.1000	0.01203
6643.6000	0.00693
6645.1000	0.00112
6646.6000	-0.00454
6648.1000	-0.00998
6649.6000	-0.01601
6651.1000	-0.02049
6652.6000	-0.02412
6654.1000	-0.02811
6655.6000	-0.03117
6657.1000	-0.03332
6658.6000	-0.03348
6660.1000	-0.03543
6661.6000	-0.03546
6663.1000	-0.03513
6664.6000	-0.03477
6666.1000	-0.03426
6667.6000	-0.03370
6669.1000	-0.03342
6670.6000	-0.03337
6672.1000	-0.03482
6673.6000	-0.03522
6675.1000	-0.03728
6676.6000	-0.03875
6678.1000	-0.04099
6679.6000	-0.04335
6681.1000	-0.04607
6682.6000	-0.04898
6684.1000	-0.05315
6685.6000	-0.05635
6687.1000	-0.06103
6688.6000	-0.06511
6690.1000	-0.07040
6691.6000	-0.07547
6693.1000	-0.08063
6694.6000	-0.08537
6696.1000	-0.08997
6697.6000	-0.09455
6699.1000	-0.09920
6700.6000	-0.10290
6702.1000	-0.10720
6703.6000	-0.11190
6705.1000	-0.11520
6706.6000	-0.11880
6708.1000	-0.12160
6709.6000	-0.12410
6711.1000	-0.12620
6712.6000	-0.12870
6714.1000	-0.13070
6715.6000	-0.13210
6717.1000	-0.13360
6718.6000	-0.13530
6720.1000	-0.13720
6721.6000	-0.13810
6723.1000	-0.13930
6724.6000	-0.14110
6726.1000	-0.14290
6727.6000	-0.14430
6729.1000	-0.14530
6730.6000	-0.14720
6732.1000	-0.14900
6733.6000	-0.15050
6735.1000	-0.15200
6736.6000	-0.15500
6738.1000	-0.15750
6739.6000	-0.15990
6741.1000	-0.16280
6742.6000	-0.16560
6744.1000	-0.16870
6745.6000	-0.17150
6747.1000	-0.17460
6748.6000	-0.17750
6750.1000	-0.18160
6751.6000	-0.18470
6753.1000	-0.18800
6754.6000	-0.19130
6756.1000	-0.19440
6757.6000	-0.19760
6759.1000	-0.20120
6760.6000	-0.20400
6762.1000	-0.20640
6763.6000	-0.21000
6765.1000	-0.21300
6766.6000	-0.21550
6768.1000	-0.21800
6769.6000	-0.22220
6771.1000	-0.22510
6772.6000	-0.22840
6774.1000	-0.23160
6775.6000	-0.23450
6777.1000	-0.23770
6778.6000	-0.24080
6780.1000	-0.24370
6781.6000	-0.24700
6783.1000	-0.25010
6784.6000	-0.25270
6786.1000	-0.25540
6787.6000	-0.25820
6789.1000	-0.26090
6790.6000	-0.26310
6792.1000	-0.26580
6793.6000	-0.26840
6795.1000	-0.27020
6796.6000	-0.27240
6798.1000	-0.27510
6799.6000	-0.27710
6801.1000	-0.27830
6802.6000	-0.28120
6804.1000	-0.28200
6805.6000	-0.28370
6807.1000	-0.28610
6808.6000	-0.28810
6810.1000	-0.28990
6811.6000	-0.29230
6813.1000	-0.29340
6814.6000	-0.29540
6816.1000	-0.29610
6817.6000	-0.29940
6819.1000	-0.30210
6820.6000	-0.30440
6822.1000	-0.30650
6823.6000	-0.30890
6825.1000	-0.31140
6826.6000	-0.31380
6828.1000	-0.31640
6829.6000	-0.31860
6831.1000	-0.32160
6832.6000	-0.32400
6834.1000	-0.32640
6835.6000	-0.32970
6837.1000	-0.33240
6838.6000	-0.33530
6840.1000	-0.33770
6841.6000	-0.34030
6843.1000	-0.34340
6844.6000	-0.34620
6846.1000	-0.34890
6847.6000	-0.35130
6849.1000	-0.35400
6850.6000	-0.35690
6852.1000	-0.35940
6853.6000	-0.36190
6855.1000	-0.36490
6856.6000	-0.36790
6858.1000	-0.37040
6859.6000	-0.37290
6861.1000	-0.37560
6862.6000	-0.37780
6864.1000	-0.38000
6865.6000	-0.38320
6867.1000	-0.38550
6868.6000	-0.38800
6870.1000	-0.39060
6871.6000	-0.39310
6873.1000	-0.39510
6874.6000	-0.39740
6876.1000	-0.40010
6877.6000	-0.40250
6879.1000	-0.40470
6880.6000	-0.40680
6882.1000	-0.40940
6883.6000	-0.41140
6885.1000	-0.41350
6886.6000	-0.41570
6888.1000	-0.41760
6889.6000	-0.42020
6891.1000	-0.42220
6892.6000	-0.42430
6894.1000	-0.42670
6895.6000	-0.42840
6897.1000	-0.43070
6898.6000	-0.43240
6900.1000	-0.43450
6901.6000	-0.43750
6903.1000	-0.43960
6904.6000	-0.44150
6906.1000	-0.44320
6907.6000	-0.44570
6909.1000	-0.44790
6910.6000	-0.44970
6912.1000	-0.45210
6913.6000	-0.45440
6915.1000	-0.45600
6916.6000	-0.45880
6918.1000	-0.46080
6919.6000	-0.46310
6921.1000	-0.46490
6922.6000	-0.46780
6924.1000	-0.47000
6925.6000	-0.47230
6927.1000	-0.47450
6928.6000	-0.47700
6930.1000	-0.47890
6931.6000	-0.48100
6933.1000	-0.48330
6934.6000	-0.48570
6936.1000	-0.48740
6937.6000	-0.49010
6939.1000	-0.49210
6940.6000	-0.49470
6942.1000	-0.49670
6943.6000	-0.49860
6945.1000	-0.50120
6946.6000	-0.50340
6948.1000	-0.50510
6949.6000	-0.50780
6951.1000	-0.51020
6952.6000	-0.51260
6954.1000	-0.51500
6955.6000	-0.51700
6957.1000	-0.51860
6958.6000	-0.52150
6960.1000	-0.52410
6961.6000	-0.52600
6963.1000	-0.52790
6964.6000	-0.53040
6966.1000	-0.53260
6967.6000	-0.53460
6969.1000	-0.53740
6970.6000	-0.53960
6972.1000	-0.54170
6973.6000	-0.54420
6975.1000	-0.54640
6976.6000	-0.54860
6978.1000	-0.55020
6979.6000	-0.55290
6981.1000	-0.55490
6982.6000	-0.55710
6984.1000	-0.55900
6985.6000	-0.56130
6987.1000	-0.56340
6988.6000	-0.56550
6990.1000	-0.56760
6991.6000	-0.56990
6993.1000	-0.57200
6994.6000	-0.57390
6996.1000	-0.57570
6997.6000	-0.57840
6999.1000	-0.58040
7000.6000	-0.58200
7002.1000	-0.58380
7003.6000	-0.58630
7005.1000	-0.58800
7006.6000	-0.59000
7008.1000	-0.59180
7009.6000	-0.59440
7011.1000	-0.59650
7012.6000	-0.59840
7014.1000	-0.60000
7015.6000	-0.60230
7017.1000	-0.60420
7018.6000	-0.60610
7020.1000	-0.60840
7021.6000	-0.61040
7023.1000	-0.61260
7024.6000	-0.61460
7026.1000	-0.61650
7027.6000	-0.61850
7029.1000	-0.62080
7030.6000	-0.62260
7032.1000	-0.62490
7033.6000	-0.62690
7035.1000	-0.62910
7036.6000	-0.63110
7038.1000	-0.63320
7039.6000	-0.63490
7041.1000	-0.63690
7042.6000	-0.63900
7044.1000	-0.64120
7045.6000	-0.64330
7047.1000	-0.64460
7048.6000	-0.64700
7050.1000	-0.64950
7051.6000	-0.65140
7053.1000	-0.65340
7054.6000	-0.65530
7056.1000	-0.65750
7057.6000	-0.65940
7059.1000	-0.66050
7060.6000	-0.66330
7062.1000	-0.66510
7063.6000	-0.66740
7065.1000	-0.66950
7066.6000	-0.67150
7068.1000	-0.67360
7069.6000	-0.67540
7071.1000	-0.67730
7072.6000	-0.67980
7074.1000	-0.68150
7075.6000	-0.68370
7077.1000	-0.68600
7078.6000	-0.68740
7080.1000	-0.68960
7081.6000	-0.69180
7083.1000	-0.69410
7084.6000	-0.69600
7086.1000	-0.69780
7087.6000	-0.69970
7089.1000	-0.70180
7090.6000	-0.70370
7092.1000	-0.70570
7093.6000	-0.70700
7095.1000	-0.70950
7096.6000	-0.71160
7098.1000	-0.71330
7099.6000	-0.71550
7101.1000	-0.71760
7102.6000	-0.71910
7104.1000	-0.72140
7105.6000	-0.72280
7107.1000	-0.72520
7108.6000	-0.72700
7110.1000	-0.72860
7111.6000	-0.73040
7113.1000	-0.73230
7114.6000	-0.73440
7116.1000	-0.73650
7117.6000	-0.73820
7119.1000	-0.73990
7120.6000	-0.74170
7122.1000	-0.74290
7123.6000	-0.74500
7125.1000	-0.74620
7126.6000	-0.74820
7128.1000	-0.74950
7129.6000	-0.75160
7131.1000	-0.75400
7132.6000	-0.75520
7134.1000	-0.75760
7135.6000	-0.75940
7137.1000	-0.76150
7138.6000	-0.76280
7140.1000	-0.76520
7141.6000	-0.76720
7143.1000	-0.76880
7144.6000	-0.77130
7146.1000	-0.77270
7147.6000	-0.77460
7149.1000	-0.77650
7150.6000	-0.77860
7152.1000	-0.78040
7153.6000	-0.78260
7155.1000	-0.78390
7156.6000	-0.78610
7158.1000	-0.78810
7159.6000	-0.79010
7161.1000	-0.79180
7162.6000	-0.79350
7164.1000	-0.79530
7165.6000	-0.79740
7167.1000	-0.79910
7168.6000	-0.80100
7170.1000	-0.80250
7171.6000	-0.80490
7173.1000	-0.80690
7174.6000	-0.80870
7176.1000	-0.81060
7177.6000	-0.81220
7179.1000	-0.81350
7180.6000	-0.81590
7182.1000	-0.81770
7183.6000	-0.81960
7185.1000	-0.82180
7186.6000	-0.82350
7188.1000	-0.82550
7189.6000	-0.82740
7191.1000	-0.82870
7192.6000	-0.83040
7194.1000	-0.83220
7195.6000	-0.83440
7197.1000	-0.83640
7198.6000	-0.83820
7200.1000	-0.84000
7201.6000	-0.84160
7203.1000	-0.84350
7204.6000	-0.84540
7206.1000	-0.84730
7207.6000	-0.84920
7209.1000	-0.85110
7210.6000	-0.85280
7212.1000	-0.85420
7213.6000	-0.85640
7215.1000	-0.85820
7216.6000	-0.86030
7218.1000	-0.86200
7219.6000	-0.86360
7221.1000	-0.86560
7222.6000	-0.86740
7224.1000	-0.86890
7225.6000	-0.87080
7227.1000	-0.87290
7228.6000	-0.87440
7230.1000	-0.87640
7231.6000	-0.87810
7233.1000	-0.87990
7234.6000	-0.88190
7236.1000	-0.88380
7237.6000	-0.88540
7239.1000	-0.88720
7240.6000	-0.88910
7242.1000	-0.89080
7243.6000	-0.89270
7245.1000	-0.89420
7246.6000	-0.89600
7248.1000	-0.89760
7249.6000	-0.89940
7251.1000	-0.90140
7252.6000	-0.90290
7254.1000	-0.90460
7255.6000	-0.90650
7257.1000	-0.90810
7258.6000	-0.90990
7260.1000	-0.91170
7261.6000	-0.91290
7263.1000	-0.91420
7264.6000	-0.91550
7266.1000	-0.91870
7267.6000	-0.92020
7269.1000	-0.92230
7270.6000	-0.92400
7272.1000	-0.92560
7273.6000	-0.92740
7275.1000	-0.92870
7276.6000	-0.93080
7278.1000	-0.93270
7279.6000	-0.93440
7281.1000	-0.93590
7282.6000	-0.93770
7284.1000	-0.93950
7285.6000	-0.94120
7287.1000	-0.94300
7288.6000	-0.94470
7290.1000	-0.94630
7291.6000	-0.94790
7293.1000	-0.94980
7294.6000	-0.95120
7296.1000	-0.95280
7297.6000	-0.95490
7299.1000	-0.95660
7300.6000	-0.95810
7302.1000	-0.95990
7303.6000	-0.96150
7305.1000	-0.96330
7306.6000	-0.96430
7308.1000	-0.96660
7309.6000	-0.96810
7311.1000	-0.96990
7312.6000	-0.97140
7314.1000	-0.97340
7315.6000	-0.97510
7317.1000	-0.97670
7318.6000	-0.97870
7320.1000	-0.97990
7321.6000	-0.98190
7323.1000	-0.98370
7324.6000	-0.98530
7326.1000	-0.98700
7327.6000	-0.98810
7329.1000	-0.98990
7330.6000	-0.99160
7332.1000	-0.99390
7333.6000	-0.99550
7335.1000	-0.99660
7336.6000	-0.99810
7338.1000	-1.00100
7339.6000	-1.00200
7341.1000	-1.00400
7342.6000	-1.00600
7344.1000	-1.00700
7345.6000	-1.00900
7347.1000	-1.01000
7348.6000	-1.01200
7350.1000	-1.01400
7351.6000	-1.01600
7353.1000	-1.01700
7354.6000	-1.01900
7356.1000	-1.02100
7357.6000	-1.02200
7359.1000	-1.02400
7360.6000	-1.02500
7362.1000	-1.02700
7363.6000	-1.02900
7365.1000	-1.03000
7366.6000	-1.03200
7368.1000	-1.03400
7369.6000	-1.03500
7371.1000	-1.03700
7372.6000	-1.03800
7374.1000	-1.04000
7375.6000	-1.04200
7377.1000	-1.04400
7378.6000	-1.04500
7380.1000	-1.04700
7381.6000	-1.04900
7383.1000	-1.05000
7384.6000	-1.05200
7386.1000	-1.05300
7387.6000	-1.05500
7389.0000	-1.05700
