# DIAMOND LIGHT SOURCE
# Instrument: I20-XAS Date: Mon, 11 Mar 2013 08:06:21 GMT
# Ring energy: 3.00097 GeV
# Initial ring current: 299.65873 mA
# Filling mode: Standby
# Wiggler gap selected: 20.00100 mm
#  
# Primary slits:  vertical gap= 0.12000 mm; horizontal gap= 0.80014 mm; vertical offset= 0.01997 mm; horizontal offset= 0.00003 mm
# Secondary slits:  vertical gap= 3.00000 mm; horizontal gap= 23.69950 mm; vertical offset= -0.20000 mm; horizontal offset= 0.15120 mm
# Experimental slits:  vertical gap= 0.80000 mm; horizontal gap= -27.47633 mm; vertical offset= -2.35000 mm; horizontal offset= 13.93711 mm
#  
# Optic Hutch Mirrors Coating: Rhodium
# Monochromator crystal cut: Si(111)
# Incident angle for Harmonic Rejection Mirrors: -2.90 mrad
# Harmonic rejection mirrors coating: Silicon
# I0 Stanford sensitivity: 2 uA/V Offsets: 10 nA
# It Stanford sensitivity: 1 uA/V Offsets: 5 nA
# Iref Stanford sensitivity: 1 uA/V Offsets: 5 nA
#
# Ascii output file name: 'Mofoil_30461_1.dat'
# Nexus output file: '/dls/i20/data/2013/cm5945-1/MoK/nexus/30461_1.nxs'
# The XML files, ScanParameters, SampleParameters, DetectorParameters, OutputParameters
# are stored in the nexus file.
#
# Sample name: Mofoil
# Sample description: Mofoil - testing the upper limit of Bragg axes
##
##
# Dark current intensity was collected over 1.00s. Average counts per second: I0 157.00   It 676.00   Iref 500.00
# Dark current has been automatically removed from counts in main scan (I0,It,Iref)
#
# Energy	lnI0It         	
19800.001	-0.6617
19804.987	-0.6621
19809.999	-0.6626
19815.01	-0.6631
19819.998	-0.6634
19825.006	-0.6639
19829.988	-0.6643
19834.999	-0.6646
19839.993	-0.665
19844.999	-0.6655
19850.003	-0.6658
19854.993	-0.6662
19859.997	-0.6665
19865.006	-0.6669
19870.006	-0.6671
19874.994	-0.6674
19880.008	-0.6675
19884.994	-0.6677
19890.006	-0.6679
19894.984	-0.668
19900.006	-0.668
19904.992	-0.6681
19909.995	-0.668
19915.001	-0.6679
19919.989	-0.6676
19924.988	-0.6673
19929.996	-0.6669
19934.798	-0.6663
19939.21	-0.6655
19943.248	-0.6647
19946.865	-0.6638
19950.154	-0.6628
19953.06	-0.6618
19955.622	-0.6608
19957.815	-0.6598
19959.669	-0.6589
19961.212	-0.658
19962.415	-0.6572
19963.265	-0.6566
19963.832	-0.6563
19964.257	-0.6559
19964.656	-0.6557
19965.069	-0.6554
19965.475	-0.655
19965.883	-0.6547
19966.306	-0.6544
19966.708	-0.6541
19967.123	-0.6537
19967.524	-0.6534
19967.948	-0.653
19968.354	-0.6526
19968.757	-0.6522
19969.176	-0.6518
19969.579	-0.6514
19969.993	-0.651
19970.401	-0.6506
19970.808	-0.6502
19971.207	-0.6497
19971.627	-0.6493
19972.051	-0.6488
19972.454	-0.6482
19972.861	-0.6477
19973.27	-0.6472
19973.678	-0.6467
19974.087	-0.6461
19974.488	-0.6456
19974.909	-0.6449
19975.309	-0.6443
19975.737	-0.6436
19976.148	-0.643
19976.547	-0.6424
19976.956	-0.6416
19977.375	-0.6409
19977.793	-0.6401
19978.185	-0.6393
19978.599	-0.6385
19979.001	-0.6377
19979.415	-0.6368
19979.821	-0.6359
19980.25	-0.635
19980.656	-0.6339
19981.068	-0.633
19981.472	-0.632
19981.876	-0.6308
19982.278	-0.6296
19982.694	-0.6284
19983.106	-0.6271
19983.515	-0.6258
19983.944	-0.6244
19984.338	-0.623
19984.762	-0.6215
19985.167	-0.6199
19985.559	-0.6182
19985.985	-0.6164
19986.389	-0.6146
19986.804	-0.6126
19987.218	-0.6105
19987.617	-0.6084
19988.027	-0.6061
19988.446	-0.6036
19988.845	-0.601
19989.262	-0.5982
19989.676	-0.5952
19990.071	-0.5919
19990.495	-0.5885
19990.895	-0.5848
19991.319	-0.5808
19991.709	-0.5765
19992.133	-0.5718
19992.538	-0.5667
19992.967	-0.561
19993.359	-0.5548
19993.771	-0.5479
19994.181	-0.5402
19994.591	-0.5316
19995.01	-0.5219
19995.405	-0.5109
19995.822	-0.4982
19996.229	-0.4836
19996.641	-0.4664
19997.051	-0.4465
19997.461	-0.4231
19997.871	-0.3955
19998.278	-0.3633
19998.69	-0.3264
19999.105	-0.285
19999.502	-0.2399
19999.924	-0.1926
20000.322	-0.1452
20000.742	-0.09954
20001.154	-0.05655
20001.561	-0.01672
20001.976	0.01993
20002.379	0.05487
20002.789	0.08852
20003.194	0.1217
20003.599	0.1552
20004.026	0.1889
20004.426	0.2234
20004.839	0.2588
20005.259	0.2942
20005.654	0.3301
20006.069	0.3658
20006.469	0.4013
20006.899	0.4361
20007.309	0.4705
20007.705	0.505
20008.12	0.5402
20008.525	0.5772
20008.935	0.6168
20009.355	0.6602
20009.758	0.7073
20010.161	0.759
20010.576	0.8149
20010.986	0.8741
20011.394	0.9352
20011.809	0.9968
20012.212	1.057
20012.635	1.115
20013.036	1.169
20013.453	1.216
20013.856	1.259
20014.267	1.293
20014.687	1.322
20015.088	1.345
20015.498	1.362
20015.906	1.373
20016.317	1.379
20016.727	1.378
20017.145	1.371
20017.546	1.359
20017.959	1.341
20018.374	1.319
20018.773	1.294
20019.188	1.268
20019.592	1.244
20020.014	1.221
20020.425	1.202
20020.826	1.188
20021.239	1.178
20021.645	1.172
20022.056	1.17
20022.481	1.172
20022.872	1.178
20023.288	1.186
20023.696	1.196
20024.117	1.206
20024.513	1.218
20024.927	1.229
20025.352	1.239
20025.763	1.249
20026.164	1.257
20026.565	1.264
20026.986	1.269
20027.385	1.273
20027.798	1.275
20028.219	1.276
20028.623	1.275
20029.031	1.274
20029.447	1.272
20029.858	1.271
20030.257	1.269
20030.68	1.268
20031.074	1.266
20031.49	1.266
20031.899	1.267
20032.3	1.269
20032.731	1.272
20033.14	1.276
20033.541	1.281
20033.931	1.287
20034.366	1.294
20034.765	1.302
20035.184	1.31
20035.581	1.318
20035.999	1.327
20036.151	1.33
20036.599	1.339
20037.067	1.348
20037.605	1.358
20038.186	1.37
20038.813	1.383
20039.513	1.399
20040.295	1.417
20041.135	1.437
20042.051	1.459
20043.028	1.478
20044.067	1.49
20045.099	1.486
20046.153	1.465
20047.226	1.431
20048.305	1.389
20049.401	1.347
20050.509	1.309
20051.612	1.278
20052.726	1.255
20053.891	1.239
20055.051	1.231
20056.211	1.229
20057.377	1.234
20058.569	1.243
20059.767	1.256
20060.989	1.27
20062.216	1.282
20063.439	1.29
20064.674	1.293
20065.953	1.291
20067.233	1.286
20068.522	1.278
20069.827	1.269
20071.129	1.26
20072.443	1.25
20073.785	1.242
20075.132	1.236
20076.504	1.235
20077.873	1.24
20079.238	1.253
20080.63	1.273
20082.046	1.298
20083.466	1.324
20084.907	1.346
20086.344	1.361
20087.811	1.367
20089.268	1.362
20090.765	1.345
20092.247	1.32
20093.749	1.29
20095.256	1.261
20096.818	1.238
20098.343	1.223
20099.897	1.218
20101.479	1.219
20103.052	1.225
20104.639	1.232
20106.257	1.237
20107.857	1.24
20109.485	1.242
20111.132	1.243
20112.79	1.244
20114.456	1.246
20116.127	1.248
20117.807	1.252
20119.513	1.26
20121.222	1.272
20122.953	1.285
20124.677	1.298
20126.439	1.31
20128.193	1.316
20129.975	1.316
20131.747	1.309
20133.569	1.297
20135.379	1.281
20137.206	1.265
20139.022	1.246
20140.868	1.226
20142.733	1.206
20144.604	1.187
20146.498	1.174
20148.392	1.167
20150.301	1.163
20152.216	1.161
20154.15	1.158
20156.093	1.156
20158.046	1.156
20160.016	1.161
20162.007	1.17
20163.981	1.18
20166.007	1.188
20168.024	1.195
20170.046	1.201
20172.086	1.205
20174.146	1.205
20176.212	1.202
20178.285	1.199
20180.386	1.199
20182.475	1.207
20184.612	1.225
20186.725	1.25
20188.88	1.275
20191.018	1.297
20193.199	1.31
20195.368	1.312
20197.54	1.304
20199.752	1.287
20201.968	1.26
20204.186	1.226
20206.424	1.186
20208.678	1.146
20210.948	1.109
20213.208	1.079
20215.503	1.06
20217.792	1.054
20220.108	1.062
20222.438	1.077
20224.758	1.092
20227.116	1.101
20229.477	1.104
20231.856	1.105
20234.221	1.108
20236.628	1.114
20239.019	1.124
20241.443	1.137
20243.902	1.152
20246.317	1.169
20248.773	1.185
20251.256	1.199
20253.731	1.208
20256.241	1.213
20258.729	1.214
20261.27	1.213
20263.784	1.213
20266.329	1.214
20268.877	1.214
20271.446	1.21
20274.026	1.202
20276.614	1.191
20279.22	1.179
20281.829	1.164
20284.456	1.145
20287.087	1.123
20289.763	1.104
20292.415	1.09
20295.111	1.078
20297.777	1.067
20300.494	1.057
20303.191	1.048
20305.912	1.045
20308.644	1.05
20311.389	1.063
20314.163	1.077
20316.944	1.09
20319.742	1.103
20322.518	1.116
20325.325	1.128
20328.163	1.138
20330.994	1.147
20333.848	1.153
20336.693	1.157
20339.582	1.159
20342.452	1.159
20345.358	1.157
20348.252	1.152
20351.177	1.145
20354.11	1.136
20357.057	1.129
20360.018	1.125
20362.979	1.124
20365.962	1.121
20368.953	1.115
20371.965	1.104
20374.98	1.089
20378.01	1.076
20381.057	1.069
20384.114	1.067
20387.186	1.069
20390.257	1.069
20393.349	1.069
20396.432	1.067
20399.564	1.063
20402.697	1.059
20405.83	1.058
20408.975	1.062
20412.132	1.069
20415.324	1.076
20418.513	1.079
20421.708	1.079
20424.909	1.077
20428.144	1.074
20431.39	1.071
20434.642	1.068
20437.89	1.068
20441.168	1.07
20444.449	1.075
20447.746	1.082
20451.065	1.088
20454.387	1.091
20457.718	1.089
20461.071	1.083
20464.42	1.078
20467.8	1.075
20471.176	1.072
20474.582	1.067
20477.979	1.059
20481.41	1.049
20484.837	1.041
20488.285	1.036
20491.743	1.035
20495.214	1.036
20498.692	1.037
20502.174	1.039
20505.682	1.039
20509.22	1.039
20512.741	1.037
20516.274	1.035
20519.831	1.032
20523.407	1.03
20526.979	1.027
20530.563	1.024
20534.166	1.023
20537.77	1.022
20541.404	1.024
20545.06	1.028
20548.712	1.029
20552.357	1.027
20556.027	1.023
20559.735	1.02
20563.444	1.019
20567.146	1.019
20570.868	1.02
20574.596	1.021
20578.354	1.024
20582.122	1.03
20585.89	1.037
20589.676	1.04
20593.476	1.038
20597.287	1.032
20601.1	1.024
20604.935	1.016
20608.78	1.006
20612.664	0.9973
20616.52	0.9908
20620.41	0.9882
20624.299	0.9871
20628.21	0.9865
20632.144	0.9847
20636.056	0.9812
20640.003	0.977
20643.954	0.9724
20647.925	0.9713
20651.918	0.9737
20655.91	0.9774
20659.904	0.9807
20663.917	0.9818
20667.961	0.9826
20671.983	0.9825
20676.053	0.9809
20680.102	0.9796
20684.199	0.9779
20688.282	0.9767
20692.403	0.9768
20696.51	0.977
20700.622	0.9778
20704.766	0.9789
20708.92	0.9797
20713.063	0.9799
20717.265	0.9776
20721.455	0.9733
20725.661	0.9687
20729.87	0.9652
20734.082	0.9623
20738.326	0.9574
20742.57	0.9514
20746.826	0.9467
20751.096	0.944
20755.387	0.9423
20759.699	0.9405
20763.993	0.9367
20768.332	0.931
20772.661	0.9268
20777.014	0.9245
20781.366	0.9231
20785.751	0.9234
20790.122	0.9252
20794.506	0.929
20798.907	0.9334
20799.99	0.9343