# DIAMOND LIGHT SOURCE
# Instrument: I20-XAS Date: Thu, 30 May 2013 21:39:16 BST
# Ring energy: 3.00095 GeV
# Initial ring current: 298.25784 mA
# Filling mode: Standby
# Wiggler gap selected: 20.00000 mm
#  
# Primary slits:  vertical gap= 0.12004 mm; horizontal gap= 0.80012 mm; vertical offset= 0.02503 mm; horizontal offset= 0.00002 mm
# Secondary slits:  vertical gap= 5.00000 mm; horizontal gap= 26.00100 mm; vertical offset= -0.15000 mm; horizontal offset= 0.68950 mm
# Experimental slits:  vertical gap= 1.20000 mm; horizontal gap= 10.00004 mm; vertical offset= 0.70000 mm; horizontal offset= 0.00001 mm
#  
# Optic Hutch Mirrors Coating: Rhodium
# Monochromator crystal cut: Si(111)
# Incident angle for Harmonic Rejection Mirrors: -6.42 mrad
# Harmonic rejection mirrors coating: Silicon
# I0 Stanford sensitivity: 2 uA/V Offsets: 10 nA
# It Stanford sensitivity: 2 uA/V Offsets: 10 nA
# Iref Stanford sensitivity: 200 nA/V Offsets: 1 nA
# Atn5 (Xia) filters: Empty Out 1mm vC Out 2mm vC In 4mm vC Out
# Sample stage: x: -2.65 mm y: 20.00 mm z: 0.00 mm rot: -0.00 deg roll: 0.00 deg pitch: 0.00 deg
#
# Ascii output file name: 'Cofoil_32553_1.dat'
# Nexus output file: '/dls/i20/data/2013/cm5945-2/Co_K_edge/nexus/32553_1.nxs'
# The XML files, ScanParameters, SampleParameters, DetectorParameters, OutputParameters
# are stored in the nexus file.
#
# Sample name: Cofoil
# Sample description: Cofoil
##
#
#
# Dark current intensity was collected over 3.00s. Average counts per second: I0 128.00   It 440.67   Iref 279.67
# Dark current has been automatically removed from counts in main scan (I0,It,Iref)
#
# Energy	lnI0It 
11364.0000	-0.16722
11369.0020	-0.16972
11373.9980	-0.17187
11379.0000	-0.17425
11384.0030	-0.17647
11389.0100	-0.17819
11394.0000	-0.18039
11398.9950	-0.18254
11403.9940	-0.18446
11408.9350	-0.18624
11413.7560	-0.18802
11418.4640	-0.18986
11423.0300	-0.19182
11427.5000	-0.19383
11431.8340	-0.19566
11436.0570	-0.19739
11440.1550	-0.19918
11444.1420	-0.20087
11448.0160	-0.20223
11451.7550	-0.20368
11455.3860	-0.20517
11458.8980	-0.20664
11462.2900	-0.20796
11465.5620	-0.20937
11468.7340	-0.21055
11471.7840	-0.21176
11474.7260	-0.21286
11477.5250	-0.21377
11480.2270	-0.21485
11482.8080	-0.21580
11485.2880	-0.21670
11487.6510	-0.21749
11489.8900	-0.21824
11492.0170	-0.21896
11494.0330	-0.21962
11495.9390	-0.22021
11497.7220	-0.22064
11499.4060	-0.22110
11500.9760	-0.22152
11502.4340	-0.22186
11503.7740	-0.22225
11505.0150	-0.22243
11506.1270	-0.22280
11507.1410	-0.22303
11508.0360	-0.22323
11508.8290	-0.22334
11509.5110	-0.22336
11510.0750	-0.22349
11510.5460	-0.22355
11510.9030	-0.22358
11511.1880	-0.22363
11511.4960	-0.22365
11511.7980	-0.22371
11512.1000	-0.22362
11512.4060	-0.22365
11512.6970	-0.22360
11513.0060	-0.22373
11513.2970	-0.22381
11513.5930	-0.22387
11513.9000	-0.22393
11514.2010	-0.22401
11514.5130	-0.22409
11514.8030	-0.22418
11515.1000	-0.22430
11515.3950	-0.22432
11515.6910	-0.22430
11516.0040	-0.22437
11516.3090	-0.22439
11516.6080	-0.22414
11516.8990	-0.22433
11517.1970	-0.22440
11517.4990	-0.22441
11517.7960	-0.22444
11518.1080	-0.22449
11518.4020	-0.22453
11518.6980	-0.22462
11518.9980	-0.22465
11519.3010	-0.22461
11519.6090	-0.22455
11519.9090	-0.22443
11520.2020	-0.22453
11520.4990	-0.22459
11520.7930	-0.22456
11521.1000	-0.22445
11521.4050	-0.22443
11521.7030	-0.22444
11521.9940	-0.22443
11522.2970	-0.22443
11522.5950	-0.22443
11522.9030	-0.22426
11523.2070	-0.22418
11523.5070	-0.22424
11523.8020	-0.22426
11524.0940	-0.22424
11524.3980	-0.22417
11524.7040	-0.22411
11525.0050	-0.22402
11525.3030	-0.22395
11525.5950	-0.22396
11525.8930	-0.22396
11526.1950	-0.22389
11526.4990	-0.22382
11526.8020	-0.22378
11527.0970	-0.22365
11527.3930	-0.22359
11527.6990	-0.22343
11527.9930	-0.22340
11528.3070	-0.22336
11528.6100	-0.22316
11528.8920	-0.22293
11529.2010	-0.22287
11529.5070	-0.22286
11529.8060	-0.22271
11530.1070	-0.22264
11530.4040	-0.22240
11530.7090	-0.22230
11531.0020	-0.22213
11531.3070	-0.22201
11531.6030	-0.22191
11531.8950	-0.22176
11532.1920	-0.22162
11532.5080	-0.22125
11532.7990	-0.22115
11533.0960	-0.22099
11533.3950	-0.22082
11533.7110	-0.22067
11533.9950	-0.22051
11534.2980	-0.22009
11534.5920	-0.21998
11534.8940	-0.21971
11535.2090	-0.21942
11535.4950	-0.21915
11535.8020	-0.21851
11536.1070	-0.21829
11536.4010	-0.21804
11536.7060	-0.21772
11537.0010	-0.21740
11537.2920	-0.21708
11537.5900	-0.21670
11537.9010	-0.21622
11538.2040	-0.21596
11538.4910	-0.21560
11538.7950	-0.21524
11539.0970	-0.21483
11539.4030	-0.21438
11539.6980	-0.21399
11539.9970	-0.21357
11540.3000	-0.21303
11540.5990	-0.21250
11540.9120	-0.21206
11541.2010	-0.21156
11541.5040	-0.21102
11541.7950	-0.21048
11542.0980	-0.20987
11542.4030	-0.20914
11542.7060	-0.20836
11542.9930	-0.20780
11543.2940	-0.20718
11543.5980	-0.20645
11543.9030	-0.20566
11544.1990	-0.20485
11544.5030	-0.20394
11544.8000	-0.20318
11545.1070	-0.20233
11545.4040	-0.20137
11545.7000	-0.20031
11545.9980	-0.19947
11546.2890	-0.19842
11546.5950	-0.19718
11546.8980	-0.19608
11547.1980	-0.19482
11547.4940	-0.19365
11547.7980	-0.19228
11548.0990	-0.19078
11548.3980	-0.18936
11548.7000	-0.18787
11548.9930	-0.18626
11549.2980	-0.18449
11549.6030	-0.18266
11549.9040	-0.18071
11550.1910	-0.17881
11550.4960	-0.17674
11550.8060	-0.17458
11551.1030	-0.17222
11551.3960	-0.16978
11551.6970	-0.16704
11551.9990	-0.16435
11552.3050	-0.16140
11552.6040	-0.15826
11552.8960	-0.15494
11553.2040	-0.15152
11553.5040	-0.14773
11553.8110	-0.14388
11554.0960	-0.13964
11554.3960	-0.13506
11554.6990	-0.13010
11555.0070	-0.12485
11555.3000	-0.11916
11555.5950	-0.11308
11555.9050	-0.10644
11556.1940	-0.09935
11556.4890	-0.09166
11556.8020	-0.08336
11557.0980	-0.07434
11557.3990	-0.06441
11557.6950	-0.05328
11558.0110	-0.04125
11558.2990	-0.02804
11558.6030	-0.01356
11558.9040	0.00250
11559.1980	0.02049
11559.5000	0.04040
11559.8070	0.06260
11560.0930	0.08734
11560.3950	0.11527
11560.7000	0.14689
11561.0040	0.18275
11561.2990	0.22335
11561.6010	0.26925
11561.9050	0.32111
11562.1980	0.37964
11562.4960	0.44552
11562.8000	0.51865
11563.1000	0.59924
11563.4100	0.68655
11563.7060	0.77953
11564.0030	0.87574
11564.2920	0.97100
11564.6000	1.06090
11564.9050	1.14026
11565.2090	1.20571
11565.5040	1.25470
11565.7950	1.28642
11566.0900	1.30210
11566.3920	1.30425
11566.6960	1.29546
11567.0020	1.27853
11567.3100	1.25596
11567.6030	1.22992
11567.9030	1.20234
11568.2010	1.17444
11568.4940	1.14702
11568.8010	1.12081
11569.0900	1.09621
11569.4030	1.07369
11569.7120	1.05321
11570.0030	1.03491
11570.3080	1.01832
11570.5980	1.00342
11570.9020	0.98998
11571.1950	0.97775
11571.4960	0.96647
11571.8110	0.95589
11572.1040	0.94567
11572.4000	0.93592
11572.6970	0.92673
11572.9990	0.91824
11573.3000	0.91029
11573.6020	0.90295
11573.9020	0.89663
11574.1980	0.89135
11574.4950	0.88722
11574.7970	0.88409
11575.0880	0.88214
11575.4040	0.88129
11575.7080	0.88169
11575.9970	0.88297
11576.2920	0.88519
11576.5880	0.88823
11576.8900	0.89217
11577.1970	0.89686
11577.4970	0.90196
11577.7950	0.90762
11578.1020	0.91314
11578.3880	0.91877
11578.6980	0.92416
11579.0080	0.92919
11579.2930	0.93367
11579.6060	0.93735
11579.8870	0.94013
11580.1890	0.94184
11580.5040	0.94232
11580.7980	0.94152
11581.0960	0.93929
11581.4010	0.93562
11581.6990	0.93076
11581.9950	0.92488
11582.3040	0.91836
11582.5990	0.91133
11582.8980	0.90401
11583.1950	0.89690
11583.5050	0.89017
11583.8090	0.88412
11584.1050	0.87910
11584.3940	0.87512
11584.6950	0.87212
11585.0030	0.86999
11585.2960	0.86865
11585.5980	0.86779
11585.8970	0.86742
11586.2050	0.86738
11586.5050	0.86762
11586.8040	0.86803
11587.0950	0.86846
11587.4010	0.86937
11587.6960	0.87037
11587.9960	0.87188
11588.2980	0.87401
11588.6020	0.87671
11588.9010	0.88017
11589.2000	0.88423
11589.4960	0.88912
11589.7960	0.89474
11590.1010	0.90117
11590.3990	0.90815
11590.7050	0.91573
11591.0020	0.92380
11591.2990	0.93230
11591.5930	0.94084
11591.9050	0.94938
11592.2110	0.95780
11592.4950	0.96592
11592.7890	0.97343
11593.0940	0.98026
11593.3920	0.98601
11593.7050	0.99057
11594.0070	0.99384
11594.3070	0.99566
11594.6070	0.99606
11594.9080	0.99524
11595.1940	0.99319
11595.4930	0.99013
11595.7930	0.98622
11596.1000	0.98160
11596.4020	0.97649
11596.6990	0.97107
11596.9970	0.96553
11597.2980	0.95991
11597.5990	0.95419
11597.8930	0.94861
11598.2000	0.94316
11598.4960	0.93804
11598.8040	0.93315
11599.0950	0.92860
11599.3920	0.92444
11599.7010	0.92064
11600.0040	0.91745
11600.2960	0.91454
11600.5980	0.91197
11600.9070	0.90989
11601.1970	0.90815
11601.5110	0.90669
11601.8020	0.90547
11602.1030	0.90445
11602.4040	0.90344
11602.6950	0.90235
11603.0000	0.90113
11603.3000	0.89974
11603.6050	0.89816
11603.9060	0.89637
11604.2090	0.89448
11604.5100	0.89230
11604.8070	0.88987
11605.1030	0.88731
11605.4060	0.88471
11605.7050	0.88231
11605.9990	0.87980
11606.3020	0.87749
11606.6020	0.87530
11606.9090	0.87335
11607.2030	0.87196
11607.4910	0.87075
11607.7940	0.86977
11608.1000	0.86922
11608.4020	0.86917
11608.7060	0.86950
11609.0050	0.87017
11609.2980	0.87128
11609.5980	0.87264
11609.9020	0.87445
11610.2040	0.87658
11610.4990	0.87895
11610.7910	0.88145
11611.0930	0.88418
11611.3900	0.88709
11611.7080	0.89009
11611.9990	0.89317
11612.3070	0.89637
11612.5970	0.89961
11612.8920	0.90292
11613.1990	0.90629
11613.5020	0.90965
11613.7900	0.91301
11614.0990	0.91635
11614.3970	0.91979
11614.6950	0.92331
11615.0040	0.92671
11615.3010	0.93021
11615.6010	0.93366
11615.8970	0.93707
11616.1920	0.94042
11616.5020	0.94375
11616.8000	0.94686
11617.0960	0.94980
11617.1000	0.94969
11617.4190	0.95264
11617.7640	0.95583
11618.1650	0.95871
11618.5950	0.96153
11619.0900	0.96395
11619.6350	0.96575
11620.2210	0.96648
11620.8760	0.96600
11621.5990	0.96407
11622.3750	0.96099
11623.2440	0.95670
11624.1510	0.95190
11625.0590	0.94706
11625.9810	0.94253
11626.8930	0.93816
11627.8340	0.93370
11628.7730	0.92932
11629.7330	0.92524
11630.6690	0.92148
11631.6380	0.91836
11632.6010	0.91610
11633.5690	0.91364
11634.5600	0.91067
11635.5480	0.90696
11636.5330	0.90226
11637.5240	0.89685
11638.5400	0.89082
11639.5610	0.88430
11640.5920	0.87763
11641.6050	0.87133
11642.6510	0.86575
11643.6830	0.86097
11644.7250	0.85718
11645.7890	0.85411
11646.8620	0.85173
11647.9270	0.85010
11649.0000	0.84905
11650.0720	0.84895
11651.1590	0.85012
11652.2630	0.85277
11653.3680	0.85661
11654.4880	0.86175
11655.6070	0.86781
11656.7270	0.87427
11657.8500	0.88048
11658.9870	0.88623
11660.1390	0.89109
11661.2820	0.89474
11662.4470	0.89748
11663.6120	0.89882
11664.7810	0.89931
11665.9660	0.89871
11667.1480	0.89766
11668.3430	0.89641
11669.5500	0.89480
11670.7550	0.89309
11671.9570	0.89132
11673.1740	0.88945
11674.4070	0.88744
11675.6330	0.88552
11676.8900	0.88392
11678.1290	0.88291
11679.3900	0.88274
11680.6500	0.88313
11681.9150	0.88426
11683.1810	0.88583
11684.4740	0.88782
11685.7580	0.88975
11687.0680	0.89136
11688.3540	0.89224
11689.6720	0.89216
11690.9830	0.89110
11692.3090	0.88884
11693.6500	0.88549
11694.9870	0.88120
11696.3180	0.87575
11697.6800	0.86967
11699.0410	0.86298
11700.3960	0.85593
11701.7680	0.84891
11703.1320	0.84254
11704.5320	0.83716
11705.9140	0.83301
11707.3170	0.83033
11708.7270	0.82893
11710.1450	0.82895
11711.5460	0.83013
11712.9680	0.83223
11714.4090	0.83489
11715.8700	0.83804
11717.3070	0.84153
11718.7510	0.84516
11720.2130	0.84860
11721.6840	0.85178
11723.1690	0.85454
11724.6360	0.85684
11726.1180	0.85880
11727.6200	0.86067
11729.1240	0.86227
11730.6400	0.86354
11732.1420	0.86461
11733.6510	0.86504
11735.1850	0.86493
11736.7400	0.86419
11738.2700	0.86304
11739.8310	0.86164
11741.3690	0.86027
11742.9500	0.85926
11744.5220	0.85887
11746.0900	0.85923
11747.6580	0.86031
11749.2490	0.86210
11750.8630	0.86429
11752.4840	0.86640
11754.0890	0.86806
11755.6950	0.86830
11757.3140	0.86685
11758.9600	0.86345
11760.5980	0.85812
11762.2480	0.85137
11763.8790	0.84408
11765.5420	0.83695
11767.2260	0.83053
11768.8820	0.82518
11770.5700	0.82099
11772.2400	0.81769
11773.9640	0.81504
11775.6520	0.81278
11777.3670	0.81081
11779.0880	0.80916
11780.7930	0.80797
11782.5110	0.80703
11784.2420	0.80634
11785.9860	0.80591
11787.7430	0.80545
11789.5080	0.80519
11791.2670	0.80535
11793.0330	0.80562
11794.7890	0.80639
11796.5880	0.80777
11798.3870	0.80984
11800.1910	0.81278
11801.9650	0.81617
11803.8060	0.81990
11805.5890	0.82409
11807.4200	0.82830
11809.2700	0.83231
11811.0990	0.83581
11812.9540	0.83840
11814.8040	0.83993
11816.6530	0.84019
11818.5200	0.83934
11820.3810	0.83734
11822.2810	0.83454
11824.1550	0.83096
11826.0440	0.82672
11827.9470	0.82171
11829.8580	0.81601
11831.7630	0.80952
11833.6660	0.80284
11835.6130	0.79623
11837.5550	0.79025
11839.4820	0.78530
11841.4190	0.78151
11843.3740	0.77890
11845.3370	0.77731
11847.3150	0.77666
11849.2940	0.77683
11851.2710	0.77761
11853.2570	0.77869
11855.2450	0.77958
11857.2490	0.77979
11859.2430	0.77900
11861.2950	0.77717
11863.3190	0.77446
11865.3310	0.77172
11867.3630	0.76952
11869.4070	0.76811
11871.4530	0.76778
11873.5230	0.76848
11875.5780	0.76986
11877.6590	0.77180
11879.7320	0.77397
11881.7990	0.77622
11883.8910	0.77839
11886.0060	0.78053
11888.1140	0.78267
11890.2120	0.78466
11892.3310	0.78613
11894.4570	0.78704
11896.6050	0.78696
11898.7360	0.78574
11900.8870	0.78383
11903.0380	0.78050
11905.1910	0.77594
11907.3540	0.77061
11909.5270	0.76478
11911.7130	0.75880
11913.9090	0.75325
11916.0980	0.74843
11918.2930	0.74454
11920.5020	0.74166
11922.7210	0.73969
11924.9380	0.73848
11927.1750	0.73796
11929.3990	0.73796
11931.6510	0.73807
11933.9070	0.73810
11936.1490	0.73797
11938.4170	0.73784
11940.6820	0.73746
11942.9650	0.73697
11945.2550	0.73613
11947.5290	0.73474
11949.8360	0.73262
11952.1320	0.73015
11954.4510	0.72776
11956.7680	0.72585
11959.0970	0.72481
11961.4230	0.72464
11963.7690	0.72532
11966.0990	0.72659
11968.4550	0.72776
11970.8140	0.72882
11973.1700	0.72938
11975.5500	0.72946
11977.9390	0.72917
11980.3220	0.72865
11982.7120	0.72799
11985.1050	0.72741
11987.5240	0.72693
11989.9300	0.72640
11992.3490	0.72556
11994.7680	0.72414
11997.2110	0.72216
11999.6470	0.71939
12002.1040	0.71589
12004.5610	0.71201
12007.0160	0.70739
12009.4880	0.70240
12011.9570	0.69716
12014.4350	0.69201
12016.9260	0.68755
12019.4200	0.68401
12021.9270	0.68149
12024.4420	0.67984
12026.9530	0.67887
12029.4800	0.67837
12032.0120	0.67822
12034.5510	0.67828
12037.0930	0.67860
12039.6430	0.67874
12042.2060	0.67872
12044.7660	0.67865
12047.3370	0.67863
12049.9210	0.67868
12052.5070	0.67855
12055.0910	0.67860
12057.6920	0.67854
12060.2850	0.67830
12062.9090	0.67787
12065.5270	0.67717
12068.1580	0.67618
12070.7920	0.67513
12073.4280	0.67406
12076.0740	0.67310
12078.7290	0.67213
12081.3810	0.67107
12084.0600	0.66959
12086.7270	0.66761
12089.4060	0.66515
12092.0990	0.66228
12094.7860	0.65935
12097.4980	0.65657
12100.1960	0.65363
12102.9190	0.65095
12105.6440	0.64824
12108.3670	0.64564
12111.1040	0.64327
12113.8490	0.64090
12116.5910	0.63841
12119.3520	0.63580
12122.1270	0.63318
12124.8920	0.63060
12127.6710	0.62798
12130.4480	0.62561
12133.2300	0.62351
12136.0370	0.62175
12138.8450	0.62048
12141.6470	0.61955
12144.4670	0.61888
12147.2960	0.61825
12150.1210	0.61758
12152.9600	0.61689
12155.8110	0.61624
12158.6680	0.61568
12161.5250	0.61534
12164.3980	0.61505
12167.2710	0.61481
12170.1470	0.61440
12173.0320	0.61386
12175.9250	0.61325
12178.8220	0.61255
12181.7360	0.61178
12184.6520	0.61083
12187.5660	0.60972
12190.4960	0.60835
12193.4340	0.60666
12196.3750	0.60481
12199.3230	0.60258
12202.2690	0.60021
12205.2330	0.59764
12208.2060	0.59477
12211.1760	0.59180
12214.1600	0.58881
12217.1540	0.58590
12220.1510	0.58320
12223.1570	0.58080
12226.1600	0.57856
12229.1770	0.57645
12232.2070	0.57441
12235.2440	0.57245
12238.2660	0.57046
12241.3130	0.56843
12244.3660	0.56638
12247.4260	0.56420
12250.4940	0.56190
12253.5810	0.55958
12256.6510	0.55691
12259.7340	0.55444
12262.8220	0.55232
12265.9210	0.55065
12269.0250	0.54936
12272.1420	0.54828
12275.2670	0.54745
12278.3920	0.54687
12281.5200	0.54659
12284.6670	0.54642
12287.8140	0.54638
12290.9570	0.54632
12294.1320	0.54613
12297.3070	0.54580
12300.4710	0.54529
12303.6430	0.54445
12306.8440	0.54339
12310.0370	0.54191
12313.2520	0.54024
12316.4530	0.53832
12319.6530	0.53607
12322.8830	0.53355
12326.1210	0.53070
12329.3620	0.52756
12332.6070	0.52437
12335.8430	0.52127
12339.1040	0.51827
12342.3800	0.51554
12345.6340	0.51293
12348.9190	0.51050
12352.2050	0.50831
12355.4850	0.50628
12358.7930	0.50423
12362.0900	0.50244
12365.4150	0.50069
12368.7160	0.49864
12372.0560	0.49677
12375.3910	0.49472
12378.7270	0.49281
12382.0650	0.49088
12385.4250	0.48904
12388.7980	0.48719
12392.1550	0.48545
12395.5130	0.48374
12398.9110	0.48209
12402.2970	0.48047
12405.6820	0.47895
12409.0820	0.47754
12412.4950	0.47623
12415.9170	0.47508
12419.3290	0.47385
12422.7770	0.47262
12426.1970	0.47148
12429.6400	0.47036
12433.0860	0.46926
12436.5480	0.46799
12440.0170	0.46674
12443.4880	0.46529
12446.9650	0.46361
12450.4260	0.46178
12453.9240	0.46000
12457.4280	0.45805
12460.9290	0.45604
12464.4460	0.45388
12467.9660	0.45164
12471.4900	0.44921
12475.0140	0.44686
12478.5470	0.44436
12482.0990	0.44183
12485.6490	0.43925
12489.2080	0.43679
12492.7760	0.43419
12496.3510	0.43170
12499.9280	0.42915
12503.5250	0.42679
12507.1130	0.42456
12510.7060	0.42238
12514.3320	0.42032
12517.9320	0.41835
12521.5440	0.41647
12525.1760	0.41460
12528.8030	0.41290
12532.4370	0.41109
12536.0970	0.40933
12539.7550	0.40757
12543.4050	0.40587
12547.0800	0.40419
12550.7490	0.40253
12554.4390	0.40093
12558.1260	0.39938
12561.8290	0.39782
12565.5250	0.39626
12569.2270	0.39476
12572.9510	0.39332
12576.6810	0.39182
12580.4110	0.39026
12584.1560	0.38868
12587.8850	0.38701
12591.6340	0.38524
12595.3970	0.38346
12599.1710	0.38148
12602.9360	0.37932
12606.7140	0.37710
12610.4950	0.37474
12614.2950	0.37245
12618.0880	0.37015
12621.9000	0.36793
12625.7080	0.36567
12629.5220	0.36349
12633.3460	0.36138
12637.1910	0.35907
12641.0210	0.35670
12644.8650	0.35437
12648.7230	0.35196
12652.5840	0.34963
12656.4550	0.34725
12660.3240	0.34499
12664.2000	0.34274
12668.0970	0.34052
12671.9840	0.33838
12675.8980	0.33637
12679.8000	0.33432
12683.7140	0.33236
12687.6420	0.33048
12691.5670	0.32861
12695.5060	0.32680
12699.4570	0.32517
12703.4060	0.32342
12707.3630	0.32167
12711.3140	0.32003
12715.3040	0.31832
12719.2560	0.31659
12723.2460	0.31480
12727.2480	0.31291
12731.2350	0.31103
12735.2440	0.30907
12739.2500	0.30711
12743.2680	0.30520
12747.3010	0.30321
12751.3310	0.30114
12755.3800	0.29904
12759.4220	0.29696
12763.4660	0.29479
12767.5310	0.29273
12771.6080	0.29041
12775.6680	0.28824
12779.7410	0.28607
12783.8400	0.28390
12787.9410	0.28177
12792.0220	0.27973
12796.1300	0.27757
12800.2470	0.27542
12804.3680	0.27324
12808.4900	0.27099
12812.6350	0.26858
12816.7880	0.26628
12820.9340	0.26389
12825.0900	0.26160
12829.2320	0.25928
12833.4110	0.25716
12837.5880	0.25495
12841.7770	0.25278
12845.9550	0.25068
12850.1600	0.24856
12854.3570	0.24648
12858.5750	0.24445
12862.7860	0.24243
12867.0140	0.24044
12871.2370	0.23850
12875.4760	0.23659
12879.7230	0.23477
12883.9730	0.23289
12888.2480	0.23107
12892.4990	0.22915
12896.7770	0.22728
12901.0420	0.22521
12905.3340	0.22316
12909.6350	0.22107
12913.9200	0.21897
12918.2380	0.21687
12922.5500	0.21473
12926.8710	0.21252
12931.1960	0.21037
12935.5310	0.20820
12939.8720	0.20601
12944.2160	0.20389
12948.5810	0.20163
12952.9300	0.19948
12957.3230	0.19718
12961.6840	0.19495
12966.0620	0.19269
12970.4410	0.19047
12974.8500	0.18821
12979.2480	0.18606
12983.6490	0.18377
12988.0810	0.18152
12992.5000	0.17928
12996.9270	0.17706
13001.3610	0.17475
13005.8030	0.17249
13010.2560	0.17033
13014.7160	0.16800
13019.1830	0.16585
13023.6340	0.16369
13028.1250	0.16156
13032.6070	0.15949
13037.1000	0.15740
13041.6020	0.15528
13046.1020	0.15313
13050.6190	0.15096
13055.1200	0.14882
13059.6550	0.14682
13064.2010	0.14469
13068.7340	0.14260
13073.2760	0.14045
13077.8340	0.13833
13082.3910	0.13638
13086.9630	0.13410
13091.5290	0.13196
13096.1180	0.12973
13100.7000	0.12749
13105.2920	0.12525
13109.8950	0.12304
13114.5090	0.12078
13119.1170	0.11856
13123.7460	0.11628
13128.3760	0.11406
13133.0170	0.11179
13137.6540	0.10947
13142.2910	0.10711
13146.9620	0.10480
13151.6300	0.10247
13156.2950	0.10010
13160.9700	0.09787
13165.6530	0.09554
13170.3430	0.09320
13175.0300	0.09088
13179.7380	0.08854
13184.4490	0.08628
13189.1670	0.08395
13193.8860	0.08169
13198.6220	0.07940
13203.3640	0.07717
13208.1160	0.07496
13212.8530	0.07280
13217.6260	0.07071
13222.3880	0.06865
13227.1590	0.06675
13231.9420	0.06489
13236.7260	0.06332
13241.5180	0.06197
13246.3230	0.06117
13251.1280	0.06121
13255.9480	0.06307
13260.7660	0.06878
13263.0040	0.07431