# DIAMOND LIGHT SOURCE
# Instrument: I20-XAS Date: Mon, 17 Sep 2012 15:27:01 BST
# Ring energy: 3.00090 GeV
# Initial ring current: 299.40330 mA
# Filling mode: Standby
# Wiggler gap selected: 20.00000 mm
#  
# Primary slits:  vertical gap= 0.11999 mm; horizontal gap= 0.80012 mm; vertical offset= 0.02002 mm; horizontal offset= 0.00002 mm
# Secondary slits:  vertical gap= 5.99900 mm; horizontal gap= 24.50000 mm; vertical offset= 0.00050 mm; horizontal offset= 0.00000 mm
# Experimental slits:  vertical gap= 10.00000 mm; horizontal gap= 12.00009 mm; vertical offset= 0.00000 mm; horizontal offset= 0.00003 mm
#  
# Optic Hutch Mirrors Coating: Rhodium
# Monochromator crystal cut: Si(111)
# Incident angle for Harmonic Rejection Mirrors: -2.96 mrad
# Harmonic rejection mirrors coating: Rh 9.5keV
# I0 Stanford sensitivity: 500 nA/V
# It Stanford sensitivity: 500 nA/V
# Iref Stanford sensitivity: 200 nA/V
#
# Ascii output file name: 'Zr_foil_23660_1.dat'
# Nexus output file: '/dls/i20/data/2012/cm5715-4/Zr_foil/nexus/23660_1.nxs'
# The XML files, ScanParameters, SampleParameters, DetectorParameters, OutputParameters
# are stored in the nexus file.
#
# Sample description: Zr foil from I18
#
#
# Dark current intensity (Hz), collected over 3.00s: I0   1158   It    606   Iref    265
# Dark current has been automatically removed from counts in main scan (I0,It,Iref)
#
# Energy  lnI0It          
17657.985	-0.6622
17662.981	-0.6631
17668.025	-0.664
17672.985	-0.6648
17677.98	-0.6657
17683.019	-0.6665
17687.999	-0.6674
17692.989	-0.6682
17698.014	-0.669
17702.977	-0.6698
17708.018	-0.6707
17713.004	-0.6715
17717.979	-0.6723
17723.001	-0.6731
17728	-0.6739
17732.988	-0.6747
17738.017	-0.6756
17743.016	-0.6764
17747.985	-0.6771
17752.986	-0.678
17757.981	-0.6787
17762.987	-0.6796
17767.983	-0.6803
17772.982	-0.6811
17778.011	-0.6819
17783.012	-0.6826
17787.985	-0.6834
17792.979	-0.6842
17797.991	-0.685
17802.981	-0.6858
17807.998	-0.6865
17812.995	-0.6873
17817.979	-0.688
17823.023	-0.6888
17828.019	-0.6895
17832.986	-0.6902
17837.989	-0.6909
17842.975	-0.6916
17847.997	-0.6923
17853.024	-0.693
17858.013	-0.6937
17863.018	-0.6944
17868.001	-0.695
17872.998	-0.6957
17877.987	-0.6963
17882.863	-0.6969
17887.415	-0.6974
17891.67	-0.6979
17895.622	-0.6983
17899.261	-0.6986
17902.636	-0.6989
17905.736	-0.6992
17908.526	-0.6995
17911.038	-0.6996
17913.247	-0.6998
17915.206	-0.6999
17916.866	-0.7
17918.305	-0.7001
17919.426	-0.7001
17920.286	-0.7002
17920.842	-0.7002
17921.188	-0.7002
17921.411	-0.7003
17921.607	-0.7003
17921.773	-0.7003
17922.008	-0.7003
17922.192	-0.7003
17922.387	-0.7004
17922.585	-0.7004
17922.816	-0.7004
17922.998	-0.7004
17923.194	-0.7004
17923.421	-0.7004
17923.579	-0.7005
17923.814	-0.7004
17923.99	-0.7005
17924.229	-0.7005
17924.413	-0.7005
17924.581	-0.7005
17924.798	-0.7005
17924.986	-0.7005
17925.219	-0.7005
17925.401	-0.7005
17925.581	-0.7005
17925.787	-0.7005
17925.988	-0.7005
17926.192	-0.7005
17926.376	-0.7005
17926.583	-0.7005
17926.807	-0.7005
17926.981	-0.7005
17927.186	-0.7005
17927.386	-0.7005
17927.584	-0.7005
17927.782	-0.7005
17928.024	-0.7005
17928.183	-0.7005
17928.385	-0.7006
17928.602	-0.7005
17928.817	-0.7005
17929.013	-0.7006
17929.205	-0.7006
17929.426	-0.7006
17929.599	-0.7006
17929.818	-0.7006
17930.018	-0.7006
17930.204	-0.7006
17930.392	-0.7006
17930.58	-0.7006
17930.787	-0.7006
17931.011	-0.7006
17931.228	-0.7006
17931.393	-0.7005
17931.581	-0.7005
17931.796	-0.7006
17931.982	-0.7006
17932.203	-0.7006
17932.38	-0.7006
17932.585	-0.7005
17932.783	-0.7006
17932.973	-0.7006
17933.193	-0.7006
17933.387	-0.7006
17933.606	-0.7006
17933.782	-0.7005
17933.992	-0.7005
17934.186	-0.7005
17934.394	-0.7005
17934.617	-0.7005
17934.817	-0.7005
17935.007	-0.7005
17935.221	-0.7005
17935.399	-0.7006
17935.61	-0.7006
17935.828	-0.7006
17936.01	-0.7005
17936.206	-0.7005
17936.42	-0.7005
17936.608	-0.7005
17936.814	-0.7005
17937.012	-0.7005
17937.221	-0.7005
17937.394	-0.7005
17937.613	-0.7005
17937.803	-0.7005
17938.005	-0.7005
17938.18	-0.7005
17938.427	-0.7004
17938.617	-0.7005
17938.791	-0.7005
17939.017	-0.7004
17939.223	-0.7005
17939.413	-0.7004
17939.599	-0.7004
17939.787	-0.7004
17939.983	-0.7004
17940.193	-0.7004
17940.381	-0.7004
17940.585	-0.7003
17940.817	-0.7004
17941.015	-0.7003
17941.169	-0.7004
17941.383	-0.7003
17941.581	-0.7003
17941.797	-0.7003
17941.975	-0.7003
17942.207	-0.7003
17942.393	-0.7003
17942.621	-0.7003
17942.803	-0.7003
17943.013	-0.7003
17943.207	-0.7002
17943.378	-0.7002
17943.587	-0.7002
17943.776	-0.7002
17943.999	-0.7001
17944.192	-0.7002
17944.417	-0.7001
17944.623	-0.7001
17944.815	-0.7001
17944.992	-0.7001
17945.198	-0.7001
17945.394	-0.7001
17945.584	-0.7
17945.824	-0.7001
17946.004	-0.7
17946.181	-0.7
17946.394	-0.7
17946.591	-0.6999
17946.791	-0.6999
17946.993	-0.6999
17947.213	-0.6999
17947.395	-0.6999
17947.576	-0.6998
17947.815	-0.6998
17948.015	-0.6998
17948.18	-0.6998
17948.417	-0.6998
17948.622	-0.6997
17948.804	-0.6997
17949.008	-0.6997
17949.216	-0.6997
17949.385	-0.6997
17949.603	-0.6996
17949.819	-0.6996
17949.995	-0.6996
17950.215	-0.6995
17950.419	-0.6995
17950.604	-0.6995
17950.804	-0.6994
17950.981	-0.6994
17951.216	-0.6993
17951.391	-0.6993
17951.597	-0.6992
17951.785	-0.6992
17952.023	-0.6992
17952.219	-0.6991
17952.386	-0.6991
17952.612	-0.6991
17952.824	-0.699
17952.987	-0.699
17953.211	-0.699
17953.395	-0.6989
17953.596	-0.6989
17953.794	-0.6989
17953.982	-0.6989
17954.202	-0.6988
17954.414	-0.6988
17954.599	-0.6988
17954.77	-0.6987
17955.007	-0.6986
17955.22	-0.6986
17955.42	-0.6985
17955.597	-0.6985
17955.819	-0.6984
17955.989	-0.6984
17956.229	-0.6983
17956.394	-0.6983
17956.618	-0.6982
17956.801	-0.6982
17957.003	-0.6982
17957.195	-0.6981
17957.392	-0.698
17957.614	-0.698
17957.791	-0.698
17958.019	-0.6979
17958.205	-0.6979
17958.384	-0.6978
17958.598	-0.6977
17958.818	-0.6977
17959.013	-0.6976
17959.184	-0.6976
17959.396	-0.6975
17959.584	-0.6974
17959.785	-0.6974
17960.017	-0.6973
17960.213	-0.6972
17960.394	-0.6972
17960.622	-0.6971
17960.818	-0.6971
17961.003	-0.697
17961.188	-0.697
17961.386	-0.6969
17961.587	-0.6967
17961.811	-0.6967
17962.021	-0.6966
17962.196	-0.6966
17962.408	-0.6965
17962.621	-0.6964
17962.803	-0.6964
17962.998	-0.6962
17963.183	-0.6962
17963.403	-0.6961
17963.619	-0.6961
17963.786	-0.6959
17963.994	-0.6959
17964.221	-0.6958
17964.394	-0.6957
17964.616	-0.6956
17964.777	-0.6955
17964.979	-0.6954
17965.192	-0.6953
17965.404	-0.6952
17965.611	-0.6951
17965.78	-0.695
17965.976	-0.6949
17966.208	-0.6948
17966.389	-0.6947
17966.592	-0.6946
17966.796	-0.6945
17966.979	-0.6943
17967.172	-0.6942
17967.376	-0.6941
17967.599	-0.694
17967.827	-0.6939
17968.017	-0.6938
17968.189	-0.6936
17968.407	-0.6935
17968.594	-0.6934
17968.81	-0.6932
17969.017	-0.6931
17969.219	-0.693
17969.378	-0.6928
17969.587	-0.6926
17969.788	-0.6925
17969.986	-0.6924
17970.181	-0.6923
17970.413	-0.6921
17970.612	-0.692
17970.812	-0.6918
17971.019	-0.6917
17971.182	-0.6915
17971.405	-0.6913
17971.609	-0.6912
17971.824	-0.691
17971.995	-0.6908
17972.184	-0.6907
17972.392	-0.6905
17972.617	-0.6903
17972.788	-0.6902
17973.008	-0.69
17973.185	-0.6897
17973.394	-0.6896
17973.591	-0.6894
17973.813	-0.6892
17974.022	-0.689
17974.197	-0.6888
17974.407	-0.6886
17974.612	-0.6884
17974.775	-0.6882
17974.98	-0.688
17975.216	-0.6877
17975.399	-0.6874
17975.624	-0.6872
17975.779	-0.6869
17975.98	-0.6866
17976.216	-0.6864
17976.395	-0.6862
17976.584	-0.6859
17976.821	-0.6857
17977.006	-0.6854
17977.222	-0.6852
17977.427	-0.6849
17977.626	-0.6846
17977.813	-0.6843
17978.031	-0.6841
17978.22	-0.6838
17978.419	-0.6834
17978.612	-0.6831
17978.817	-0.6828
17979	-0.6825
17979.211	-0.6822
17979.427	-0.6818
17979.617	-0.6815
17979.79	-0.6811
17980.028	-0.6807
17980.186	-0.6803
17980.422	-0.6799
17980.607	-0.6796
17980.784	-0.6792
17980.999	-0.6788
17981.21	-0.6783
17981.389	-0.6778
17981.602	-0.6774
17981.818	-0.677
17982.019	-0.6765
17982.22	-0.676
17982.388	-0.6755
17982.581	-0.675
17982.79	-0.6745
17983.006	-0.674
17983.199	-0.6734
17983.394	-0.6729
17983.589	-0.6722
17983.83	-0.6717
17984.011	-0.6712
17984.212	-0.6706
17984.389	-0.6699
17984.61	-0.6692
17984.799	-0.6685
17985.01	-0.6679
17985.217	-0.6672
17985.382	-0.6664
17985.589	-0.6656
17985.778	-0.6648
17985.983	-0.664
17986.186	-0.6632
17986.393	-0.6623
17986.61	-0.6615
17986.774	-0.6605
17986.975	-0.6596
17987.219	-0.6585
17987.412	-0.6575
17987.584	-0.6564
17987.8	-0.6553
17988.021	-0.6542
17988.218	-0.653
17988.421	-0.6518
17988.595	-0.6505
17988.814	-0.649
17989.009	-0.6476
17989.182	-0.6462
17989.401	-0.6447
17989.624	-0.6431
17989.821	-0.6414
17990.004	-0.6397
17990.188	-0.6379
17990.391	-0.636
17990.59	-0.6339
17990.785	-0.6318
17991.028	-0.6296
17991.181	-0.6273
17991.42	-0.6248
17991.597	-0.6222
17991.775	-0.6194
17991.986	-0.6165
17992.199	-0.6134
17992.418	-0.6102
17992.583	-0.6066
17992.808	-0.6029
17992.986	-0.5989
17993.189	-0.5946
17993.414	-0.59
17993.577	-0.585
17993.788	-0.5798
17994.013	-0.5739
17994.199	-0.5676
17994.378	-0.5607
17994.613	-0.5533
17994.787	-0.5451
17994.978	-0.5362
17995.181	-0.5264
17995.363	-0.5155
17995.582	-0.5034
17995.824	-0.4901
17996.002	-0.4754
17996.179	-0.4591
17996.39	-0.4409
17996.596	-0.421
17996.785	-0.3991
17996.992	-0.3753
17997.217	-0.3492
17997.41	-0.3221
17997.614	-0.2916
17997.809	-0.2607
17998.004	-0.229
17998.18	-0.197
17998.381	-0.1656
17998.606	-0.1356
17998.808	-0.1081
17998.995	-0.0834
17999.19	-0.0623
17999.406	-0.0451
17999.577	-0.0322
17999.814	-0.0233
18000.006	-0.018
18000.177	-0.0159
18000.412	-0.0162
18000.615	-0.0182
18000.783	-0.0212
18001.016	-0.0245
18001.208	-0.0275
18001.411	-0.0299
18001.626	-0.0312
18001.816	-0.0312
18001.979	-0.0297
18002.212	-0.0267
18002.414	-0.0221
18002.625	-0.0161
18002.787	-0.0086
18002.99	3E-4
18003.174	0.0106
18003.389	0.0219
18003.612	0.0344
18003.824	0.0478
18004.023	0.0621
18004.185	0.0774
18004.434	0.0932
18004.604	0.1096
18004.803	0.1268
18005.006	0.1445
18005.198	0.1628
18005.38	0.1817
18005.621	0.2011
18005.816	0.2214
18005.976	0.2423
18006.193	0.2639
18006.393	0.2861
18006.602	0.309
18006.808	0.3327
18006.975	0.3568
18007.201	0.3816
18007.392	0.4068
18007.596	0.4323
18007.809	0.4576
18007.973	0.4829
18008.182	0.5082
18008.418	0.5329
18008.595	0.5571
18008.789	0.5807
18009.014	0.6036
18009.192	0.6257
18009.397	0.6469
18009.617	0.6671
18009.787	0.6864
18009.992	0.7048
18010.204	0.7222
18010.378	0.7383
18010.619	0.7534
18010.814	0.7676
18011.018	0.7805
18011.166	0.7919
18011.389	0.8031
18011.609	0.8126
18011.8	0.8209
18011.972	0.8278
18012.215	0.8336
18012.405	0.8381
18012.597	0.8412
18012.812	0.8432
18013.014	0.8438
18013.2	0.8434
18013.374	0.8418
18013.603	0.8393
18013.822	0.836
18013.984	0.8319
18014.222	0.827
18014.402	0.8217
18014.595	0.816
18014.785	0.8099
18015.007	0.8038
18015.196	0.7975
18015.394	0.7915
18015.606	0.7854
18015.793	0.7796
18016.003	0.7741
18016.187	0.769
18016.404	0.7641
18016.632	0.7598
18016.804	0.7558
18016.998	0.7522
18017.193	0.749
18017.409	0.7462
18017.611	0.7438
18017.814	0.7418
18018.022	0.7401
18018.214	0.7387
18018.378	0.7375
18018.572	0.7365
18018.807	0.7357
18019.007	0.735
18019.195	0.7344
18019.411	0.7339
18019.575	0.7333
18019.78	0.733
18020.014	0.7327
18020.216	0.7323
18020.398	0.7321
18020.586	0.7317
18020.817	0.7315
18021.005	0.7314
18021.225	0.7312
18021.403	0.731
18021.585	0.7311
18021.794	0.7313
18021.996	0.7316
18022.21	0.7322
18022.39	0.733
18022.621	0.734
18022.811	0.7353
18023.003	0.7368
18023.209	0.7388
18023.415	0.7411
18023.583	0.7436
18023.809	0.7465
18024.018	0.7499
18024.173	0.7535
18024.426	0.7574
18024.624	0.7616
18024.794	0.7662
18025.014	0.7709
18025.222	0.7759
18025.42	0.7811
18025.62	0.7864
18025.812	0.7917
18026.01	0.7971
18026.219	0.8025
18026.409	0.8077
18026.611	0.8131
18026.809	0.8183
18027.003	0.8233
18027.213	0.8281
18027.419	0.8327
18027.603	0.8371
18027.805	0.8413
18028.021	0.8451
18028.193	0.8486
18028.413	0.8519
18028.583	0.8548
18028.813	0.8573
18029.005	0.8596
18029.191	0.8614
18029.423	0.8628
18029.579	0.864
18029.791	0.8648
18029.981	0.8651
18030.175	0.8651
18030.387	0.8645
18030.577	0.8637
18030.785	0.8624
18031.007	0.8608
18031.185	0.8588
18031.405	0.8564
18031.613	0.8536
18031.823	0.8505
18031.982	0.8472
18032.194	0.8436
18032.386	0.8396
18032.59	0.8355
18032.808	0.8312
18032.984	0.8267
18033.218	0.822
18033.382	0.8172
18033.614	0.8123
18033.79	0.8073
18033.988	0.8023
18034.212	0.7975
18034.414	0.7925
18034.595	0.7876
18034.809	0.7827
18035.015	0.778
18035.203	0.7733
18035.401	0.769
18035.609	0.7648
18035.776	0.7607
18036.002	0.7568
18036.22	0.7532
18036.408	0.7497
18036.59	0.7465
18036.782	0.7437
18036.983	0.7409
18037.185	0.7383
18037.409	0.7361
18037.595	0.7339
18037.795	0.7321
18037.989	0.7304
18038.203	0.7288
18038.41	0.7275
18038.6	0.7263
18038.788	0.7251
18038.983	0.7243
18039.22	0.7235
18039.417	0.7228
18039.589	0.7221
18039.805	0.7215
18040.002	0.7209
18040.188	0.7205
18040.4	0.72
18040.59	0.7195
18040.793	0.719
18041.025	0.7187
18041.183	0.7182
18041.399	0.7178
18041.586	0.7172
18041.79	0.7166
18041.98	0.7161
18042.212	0.7154
18042.407	0.7147
18042.599	0.714
18042.78	0.7133
18043.002	0.7123
18043.216	0.7115
18043.4	0.7106
18043.587	0.7097
18043.819	0.7088
18044.007	0.7077
18044.206	0.7067
18044.404	0.7057
18044.58	0.7048
18044.82	0.7037
18044.979	0.7028
18045.179	0.7018
18045.414	0.7009
18045.584	0.6999
18045.814	0.699
18045.979	0.6981
18046.207	0.6972
18046.382	0.6964
18046.582	0.6956
18046.796	0.695
18046.985	0.6943
18047.201	0.6936
18047.394	0.6931
18047.584	0.6926
18047.816	0.6921
18048.001	0.6918
18048.205	0.6915
18048.392	0.6913
18048.626	0.6911
18048.783	0.691
18048.993	0.691
18049.205	0.6911
18049.388	0.6912
18049.592	0.6916
18049.821	0.6918
18050.005	0.6923
18050.218	0.6928
18050.374	0.6935
18050.597	0.6942
18050.809	0.695
18051.006	0.696
18051.218	0.697
18051.399	0.6981
18051.591	0.6994
18051.786	0.7007
18051.982	0.7021
18052.189	0.7036
18052.413	0.7052
18052.615	0.7069
18052.812	0.7086
18053.015	0.7105
18053.215	0.7124
18053.406	0.7144
18053.626	0.7165
18053.787	0.7186
18054.013	0.7207
18054.206	0.7229
18054.379	0.725
18054.613	0.7274
18054.812	0.7296
18055.002	0.7319
18055.211	0.7342
18055.387	0.7365
18055.588	0.7388
18055.805	0.7411
18055.991	0.7434
18056.196	0.7457
18056.384	0.7479
18056.587	0.7501
18056.815	0.7524
18056.982	0.7544
18057.179	0.7566
18057.409	0.7587
18057.582	0.7608
18057.773	0.7628
18058.027	0.7646
18058.19	0.7664
18058.387	0.7681
18058.611	0.7697
18058.796	0.7712
18058.991	0.7727
18059.225	0.7741
18059.398	0.7753
18059.593	0.7765
18059.819	0.7774
18059.984	0.7783
18060.211	0.7791
18060.421	0.7797
18060.596	0.7803
18060.813	0.7806
18060.984	0.7807
18061.216	0.7809
18061.387	0.7808
18061.604	0.7807
18061.81	0.7803
18062.009	0.7798
18062.208	0.7791
18062.415	0.7784
18062.576	0.7775
18062.81	0.7765
18062.997	0.7753
18063.216	0.7739
18063.422	0.7726
18063.621	0.771
18063.806	0.7694
18064.005	0.7677
18064.186	0.7658
18064.422	0.7639
18064.597	0.7619
18064.804	0.7598
18065.013	0.7577
18065.182	0.7554
18065.402	0.7532
18065.585	0.7511
18065.796	0.7487
18066.007	0.7464
18066.176	0.7442
18066.424	0.7419
18066.587	0.7397
18066.808	0.7375
18067.017	0.7353
18067.214	0.7333
18067.387	0.7311
18067.607	0.7292
18067.818	0.7273
18068.017	0.7255
18068.21	0.7239
18068.409	0.7221
18068.612	0.7206
18068.833	0.719
18069.01	0.7176
18069.179	0.7164
18069.384	0.715
18069.626	0.714
18069.803	0.7129
18070.024	0.7119
18070.179	0.711
18070.424	0.7102
18070.581	0.7094
18070.794	0.7087
18071.015	0.708
18071.2	0.7075
18071.383	0.7069
18071.614	0.7064
18071.781	0.7058
18071.99	0.7054
18072.222	0.705
18072.384	0.7045
18072.587	0.7041
18072.801	0.7037
18073.006	0.7033
18073.193	0.7028
18073.384	0.7023
18073.615	0.7019
18073.782	0.7014
18073.977	0.701
18074.216	0.7004
18074.391	0.6999
18074.598	0.6994
18074.803	0.6987
18074.981	0.6982
18075.265	0.6973
18075.536	0.6964
18075.874	0.6953
18076.264	0.694
18076.645	0.6925
18077.156	0.6908
18077.66	0.6889
18078.285	0.6869
18078.976	0.6851
18079.683	0.6834
18080.374	0.6822
18081.073	0.6815
18081.808	0.6814
18082.499	0.6818
18083.23	0.6829
18083.963	0.6847
18084.661	0.6871
18085.372	0.6903
18086.147	0.694
18086.882	0.6982
18087.6	0.7027
18088.329	0.7073
18089.101	0.7118
18089.827	0.716
18090.59	0.7198
18091.366	0.723
18092.101	0.7256
18092.879	0.7275
18093.623	0.7287
18094.395	0.7293
18095.175	0.7291
18095.947	0.7283
18096.709	0.7267
18097.487	0.7246
18098.241	0.7217
18099.042	0.7183
18099.852	0.7143
18100.628	0.7099
18101.425	0.7048
18102.215	0.6995
18103.016	0.6937
18103.83	0.6879
18104.607	0.6819
18105.386	0.6762
18106.229	0.6706
18107.052	0.6657
18107.855	0.6614
18108.664	0.6578
18109.509	0.6551
18110.33	0.6533
18111.167	0.6524
18112.017	0.6522
18112.818	0.6529
18113.666	0.654
18114.533	0.6555
18115.355	0.6572
18116.201	0.659
18117.04	0.661
18117.906	0.6629
18118.754	0.6649
18119.634	0.6669
18120.496	0.6689
18121.319	0.6709
18122.207	0.6728
18123.105	0.6746
18123.962	0.6762
18124.836	0.6777
18125.743	0.6788
18126.592	0.68
18127.47	0.6811
18128.381	0.6821
18129.254	0.6832
18130.167	0.6844
18131.047	0.6855
18131.952	0.6866
18132.855	0.6876
18133.795	0.6886
18134.674	0.6895
18135.618	0.69
18136.506	0.6903
18137.456	0.6902
18138.37	0.6897
18139.31	0.6887
18140.206	0.6871
18141.168	0.6849
18142.095	0.6823
18143.011	0.6791
18143.944	0.6755
18144.898	0.6717
18145.857	0.6677
18146.808	0.6632
18147.753	0.6587
18148.748	0.654
18149.697	0.6491
18150.673	0.6442
18151.618	0.6394
18152.576	0.6347
18153.543	0.6303
18154.531	0.6263
18155.517	0.6227
18156.475	0.6196
18157.488	0.6172
18158.46	0.6151
18159.446	0.6137
18160.449	0.6128
18161.451	0.6124
18162.45	0.6122
18163.435	0.6124
18164.428	0.6129
18165.469	0.6136
18166.483	0.6143
18167.492	0.6154
18168.53	0.6165
18169.555	0.6179
18170.533	0.6198
18171.579	0.6219
18172.591	0.6244
18173.655	0.6271
18174.688	0.6301
18175.722	0.633
18176.761	0.636
18177.82	0.6386
18178.828	0.6411
18179.906	0.6434
18180.971	0.6456
18182.01	0.6477
18183.065	0.6497
18184.129	0.6517
18185.193	0.6533
18186.297	0.6547
18187.363	0.6557
18188.445	0.6562
18189.505	0.6563
18190.574	0.6556
18191.693	0.6546
18192.766	0.653
18193.875	0.6512
18194.962	0.649
18196.025	0.6466
18197.13	0.6442
18198.236	0.6417
18199.342	0.639
18200.44	0.6363
18201.576	0.6335
18202.7	0.6306
18203.823	0.6276
18204.957	0.6245
18206.076	0.6215
18207.183	0.6185
18208.294	0.6155
18209.449	0.6126
18210.564	0.6094
18211.706	0.6064
18212.864	0.6032
18214.008	0.6
18215.172	0.5969
18216.312	0.594
18217.459	0.5914
18218.644	0.589
18219.776	0.5871
18220.958	0.5855
18222.141	0.5846
18223.304	0.5842
18224.441	0.5844
18225.637	0.5852
18226.84	0.5864
18228.02	0.5882
18229.21	0.5903
18230.385	0.5925
18231.571	0.5951
18232.79	0.5977
18233.967	0.6005
18235.148	0.6035
18236.378	0.6064
18237.592	0.6093
18238.761	0.6121
18239.979	0.6147
18241.222	0.6172
18242.441	0.6195
18243.659	0.6215
18244.854	0.6235
18246.075	0.6253
18247.345	0.6267
18248.574	0.6278
18249.816	0.6285
18251.068	0.6287
18252.274	0.6282
18253.53	0.6271
18254.789	0.6255
18256.052	0.6235
18257.305	0.6212
18258.574	0.6187
18259.809	0.6163
18261.073	0.614
18262.377	0.6118
18263.621	0.6096
18264.914	0.6075
18266.192	0.6053
18267.434	0.6031
18268.762	0.6008
18270.001	0.5986
18271.331	0.5964
18272.623	0.5942
18273.882	0.5921
18275.188	0.59
18276.481	0.5879
18277.801	0.5858
18279.102	0.5836
18280.428	0.5815
18281.739	0.5793
18283.03	0.5773
18284.395	0.5753
18285.69	0.5735
18287.035	0.572
18288.366	0.5706
18289.705	0.5698
18291.04	0.5692
18292.375	0.5688
18293.684	0.5685
18295.022	0.5683
18296.37	0.5683
18297.73	0.5684
18299.085	0.5686
18300.426	0.569
18301.795	0.5695
18303.189	0.5702
18304.555	0.571
18305.922	0.5719
18307.26	0.5729
18308.622	0.574
18310.009	0.5752
18311.392	0.5764
18312.786	0.5778
18314.189	0.5791
18315.577	0.5806
18316.955	0.5818
18318.374	0.5831
18319.772	0.5843
18321.185	0.5854
18322.552	0.5864
18323.974	0.5874
18325.363	0.5881
18326.769	0.5884
18328.205	0.5883
18329.65	0.5876
18331.057	0.5864
18332.464	0.5847
18333.901	0.5827
18335.339	0.5804
18336.8	0.578
18338.242	0.5755
18339.671	0.5733
18341.126	0.5712
18342.544	0.5693
18344.031	0.5674
18345.468	0.5655
18346.895	0.5637
18348.374	0.5617
18349.853	0.5597
18351.312	0.5576
18352.771	0.5555
18354.231	0.5533
18355.735	0.5513
18357.185	0.5494
18358.69	0.5477
18360.167	0.5462
18361.67	0.545
18363.125	0.544
18364.648	0.543
18366.129	0.5422
18367.655	0.5416
18369.131	0.5412
18370.615	0.5409
18372.135	0.5409
18373.643	0.541
18375.173	0.5413
18376.684	0.5418
18378.213	0.5423
18379.723	0.5429
18381.261	0.5435
18382.791	0.5441
18384.329	0.5447
18385.882	0.5452
18387.386	0.5457
18388.97	0.546
18390.487	0.5462
18392.051	0.5464
18393.564	0.5465
18395.16	0.5465
18396.715	0.5463
18398.249	0.5461
18399.823	0.5459
18401.389	0.5457
18402.947	0.5456
18404.523	0.5456
18406.131	0.5456
18407.684	0.5456
18409.28	0.5456
18410.841	0.5454
18412.426	0.5452
18414.031	0.5446
18415.618	0.544
18417.238	0.5431
18418.855	0.5421
18420.438	0.541
18422.043	0.5397
18423.639	0.5384
18425.273	0.537
18426.891	0.5355
18428.47	0.534
18430.107	0.5323
18431.753	0.5306
18433.372	0.529
18435.014	0.5274
18436.637	0.526
18438.272	0.5247
18439.915	0.5235
18441.57	0.5225
18443.206	0.5215
18444.858	0.5205
18446.481	0.5195
18448.152	0.5184
18449.828	0.5175
18451.492	0.5165
18453.15	0.5157
18454.837	0.5149
18456.483	0.5144
18458.15	0.5138
18459.846	0.5135
18461.522	0.5133
18463.169	0.5131
18464.885	0.513
18466.543	0.513
18468.258	0.5131
18469.968	0.5131
18471.619	0.5131
18473.351	0.5131
18475.058	0.5131
18476.739	0.513
18478.437	0.5128
18480.181	0.5125
18481.887	0.5121
18483.609	0.5117
18485.349	0.5112
18487.047	0.5107
18488.805	0.5102
18490.498	0.5098
18492.259	0.5094
18494.007	0.5089
18495.746	0.5085
18497.457	0.5081
18499.209	0.5078
18500.971	0.5075
18502.734	0.5072
18504.457	0.5069
18506.233	0.5065
18508.001	0.506
18509.753	0.5053
18511.511	0.5047
18513.286	0.5039
18515.063	0.5031
18516.868	0.5021
18518.64	0.5009
18520.415	0.4996
18522.179	0.4983
18524.011	0.497
18525.763	0.4956
18527.564	0.4943
18529.374	0.493
18531.161	0.4917
18532.981	0.4904
18534.815	0.4892
18536.618	0.4881
18538.396	0.4871
18540.23	0.4862
18542.047	0.4853
18543.861	0.4844
18545.71	0.4835
18547.542	0.4828
18549.364	0.4821
18551.178	0.4815
18553.048	0.4808
18554.888	0.4804
18556.728	0.4801
18558.565	0.4798
18560.397	0.4794
18562.274	0.4792
18564.11	0.479
18565.989	0.4787
18567.861	0.4784
18569.702	0.478
18571.57	0.4775
18573.424	0.4771
18575.302	0.4765
18577.222	0.476
18579.079	0.4754
18580.966	0.4748
18582.826	0.4742
18584.746	0.4736
18586.653	0.473
18588.541	0.4723
18590.449	0.4717
18592.32	0.471
18594.231	0.4704
18596.129	0.4697
18598.062	0.4691
18599.955	0.4685
18601.884	0.4679
18603.81	0.4672
18605.715	0.4666
18607.67	0.466
18609.599	0.4653
18611.518	0.4647
18613.439	0.464
18615.377	0.4632
18617.333	0.4625
18619.266	0.4616
18621.229	0.4607
18623.188	0.4598
18625.141	0.4588
18627.061	0.4578
18629.055	0.4568
18630.993	0.4558
18632.962	0.4548
18634.937	0.4539
18636.899	0.4529
18638.908	0.452
18640.89	0.451
18642.863	0.4501
18644.85	0.4492
18646.808	0.4484
18648.832	0.4476
18650.797	0.4468
18652.82	0.4461
18654.773	0.4454
18656.803	0.4447
18658.82	0.444
18660.83	0.4434
18662.81	0.4428
18664.824	0.4421
18666.861	0.4415
18668.859	0.4409
18670.916	0.4402
18672.934	0.4397
18674.962	0.439
18677.013	0.4385
18679.018	0.4378
18681.049	0.4373
18683.131	0.4367
18685.182	0.4361
18687.208	0.4355
18689.285	0.4349
18691.31	0.4343
18693.384	0.4336
18695.427	0.4329
18697.502	0.4322
18699.568	0.4316
18701.623	0.4309
18703.731	0.4301
18705.77	0.4294
18707.864	0.4287
18709.918	0.4279
18712.007	0.4272
18714.127	0.4265
18716.216	0.4257
18718.307	0.425
18720.391	0.4242
18722.484	0.4234
18724.589	0.4226
18726.711	0.4218
18728.827	0.421
18730.905	0.4201
18733.016	0.4193
18735.138	0.4185
18737.252	0.4177
18739.415	0.4168
18741.545	0.4159
18743.663	0.4151
18745.813	0.4142
18747.922	0.4133
18750.078	0.4124
18752.233	0.4116
18754.375	0.4107
18756.529	0.4099
18758.65	0.4091
18760.801	0.4082
18762.973	0.4075
18765.125	0.4067
18767.291	0.406
18769.444	0.4052
18771.628	0.4045
18773.801	0.4038
18775.978	0.403
18778.14	0.4024
18780.347	0.4016
18782.52	0.4009
18784.738	0.4002
18786.893	0.3995
18789.113	0.3987
18791.278	0.398
18793.48	0.3973
18795.714	0.3967
18797.915	0.396
18800.123	0.3953
18802.342	0.3946
18804.54	0.3939
18806.739	0.3932
18808.985	0.3924
18811.239	0.3918
18813.432	0.391
18815.691	0.3903
18817.921	0.3895
18820.163	0.3888
18822.379	0.388
18824.605	0.3873
18826.86	0.3866
18829.133	0.3858
18831.363	0.385
18833.646	0.3842
18835.899	0.3834
18838.161	0.3826
18840.431	0.3818
18842.696	0.3809
18844.932	0.3801
18847.244	0.3793
18849.498	0.3784
18851.809	0.3776
18854.06	0.3768
18856.383	0.376
18858.63	0.3751
18860.933	0.3743
18863.246	0.3734
18865.55	0.3726
18867.854	0.3718
18870.152	0.371
18872.44	0.3702
18874.743	0.3694
18877.087	0.3686
18879.376	0.3678
18881.714	0.367
18884.031	0.3663
18886.353	0.3655
18888.666	0.3647
18890.989	0.3639
18893.351	0.3631
18895.675	0.3623
18898.028	0.3616
18900.349	0.3608
18902.707	0.36
18905.064	0.3592
18907.413	0.3584
18909.799	0.3576
18912.127	0.3568
18914.521	0.3561
18916.855	0.3553
18919.241	0.3545
18921.6	0.3538
18924.007	0.353
18926.345	0.3523
18928.739	0.3515
18931.106	0.3507
18933.518	0.3499
18935.881	0.3492
18938.303	0.3484
18940.671	0.3477
18943.092	0.3469
18945.474	0.3462
18947.907	0.3453
18950.271	0.3445
18952.696	0.3438
18955.136	0.343
18957.528	0.3422
18959.979	0.3414
18962.41	0.3405
18964.821	0.3398
18967.222	0.3389
18969.652	0.3381
18972.122	0.3373
18974.551	0.3364
18976.963	0.3356
18979.411	0.3348
18981.866	0.3339
18984.306	0.3331
18986.767	0.3323
18989.215	0.3314
18991.706	0.3306
18994.156	0.3298
18996.601	0.329
18999.094	0.3282
19001.589	0.3273
19004.022	0.3265
19006.523	0.3257
19008.987	0.3249
19011.463	0.3241
19013.955	0.3233
19016.468	0.3225
19018.95	0.3216
19021.425	0.3208
19023.935	0.3201
19026.439	0.3192
19028.979	0.3184
19031.458	0.3176
19033.953	0.3168
19036.48	0.3159
19039.014	0.3151
19041.509	0.3144
19044.042	0.3135
19046.565	0.3127
19049.126	0.312
19051.666	0.3111
19054.191	0.3104
19056.701	0.3095
19059.238	0.3088
19061.811	0.3079
19064.343	0.3071
19066.901	0.3063
19069.438	0.3055
19072.014	0.3048
19074.567	0.304
19077.131	0.3031
19079.683	0.3023
19082.291	0.3015
19084.855	0.3007
19087.433	0.2999
19089.978	0.2991
19092.598	0.2982
19095.138	0.2974
19097.774	0.2966
19100.361	0.2957
19102.956	0.2949
19105.53	0.2941
19108.165	0.2932
19110.743	0.2924
19113.364	0.2916
19115.95	0.2908
19118.581	0.2899
19121.19	0.2891
19123.814	0.2883
19126.403	0.2875
19129.066	0.2866
19131.661	0.2858
19134.289	0.285
19136.932	0.2842
19139.562	0.2833
19142.218	0.2825
19144.868	0.2816
19147.518	0.2808
19150.142	0.28
19152.816	0.2792
19155.451	0.2784
19158.12	0.2775
19160.754	0.2767
19163.447	0.2759
19166.086	0.2751
19168.792	0.2742
19171.444	0.2734
19174.125	0.2726
19176.817	0.2718
19179.483	0.2709
19182.187	0.2701
19184.859	0.2692
19187.546	0.2685
19190.266	0.2676
19192.952	0.2668
19195.627	0.2659
19198.365	0.2651
19201.064	0.2642
19203.764	0.2634
19206.491	0.2626
19209.168	0.2617
19211.892	0.2609
19214.609	0.2601
19217.375	0.2592
19220.075	0.2584
19222.798	0.2576
19225.563	0.2567
19228.303	0.2559
19231.01	0.2551
19233.755	0.2542
19236.507	0.2534
19239.277	0.2526
19242.006	0.2517
19244.737	0.2509
19247.531	0.25
19250.302	0.2492
19253.061	0.2483
19255.812	0.2475
19258.618	0.2467
19261.381	0.2458
19264.152	0.245
19266.908	0.2441
19269.717	0.2433
19272.495	0.2425
19275.249	0.2416
19278.06	0.2408
19280.882	0.2399
19283.658	0.2391
19286.45	0.2383
19289.273	0.2374
19292.086	0.2365
19294.882	0.2357
19297.677	0.2348
19300.515	0.234
19303.336	0.2332
19306.188	0.2323
19309.008	0.2315
19311.827	0.2306
19314.645	0.2298
19317.452	0.2289
19320.325	0.2281
19323.157	0.2272
19326.003	0.2264
19328.868	0.2255
19331.672	0.2247
19334.557	0.2239
19337.427	0.223
19340.284	0.2221
19343.13	0.2213
19345.984	0.2205
19348.858	0.2196
19351.711	0.2188
19354.591	0.2179
19357.464	0.217
19360.354	0.2162
19363.227	0.2154
19366.113	0.2145
19369.019	0.2136
19371.945	0.2128
19374.792	0.212
19377.713	0.2111
19380.611	0.2102
19383.493	0.2094
19386.432	0.2086
19389.349	0.2077
19392.222	0.2068
19395.141	0.206
19398.073	0.2051
19400.996	0.2043
19403.915	0.2035
19406.875	0.2026
19409.826	0.2018
19412.734	0.2009
19415.676	0.2
19418.593	0.1992
19421.543	0.1983
19424.48	0.1975
19427.432	0.1966
19430.415	0.1958
19433.383	0.1949
19436.33	0.1941
19439.318	0.1932
19442.228	0.1924
19445.234	0.1915
19448.197	0.1907
19451.161	0.1898
19454.121	0.1889
19457.119	0.1881
19460.118	0.1872
19463.108	0.1864
19466.095	0.1856
19469.095	0.1847
19472.086	0.1839
19475.075	0.183
19478.098	0.1821
19481.101	0.1813
19484.119	0.1804
19487.08	0.1796
19490.132	0.1787
19493.153	0.1778
19496.147	0.177
19499.155	0.1761
19502.188	0.1752
19505.254	0.1744
19508.254	0.1736
19511.32	0.1726
19514.347	0.1718
19517.371	0.171
19520.414	0.1701
19523.461	0.1692
19526.506	0.1683
19529.563	0.1675
19532.61	0.1666
19535.679	0.1657
19538.753	0.1649
19541.815	0.164
19544.88	0.1632
19547.978	0.1623
19551.028	0.1614
19554.138	0.1606
19557.218	0.1597
19560.307	0.1589
19563.359	0.158
19566.479	0.1571
19569.547	0.1563
19572.672	0.1554
19575.735	0.1546
19578.838	0.1537
19581.987	0.1528
19585.095	0.152
19588.195	0.1511
19591.309	0.1502
19594.392	0.1493
19597.518	0.1485
19600.654	0.1476
19603.765	0.1467
19606.936	0.1458
19610.036	0.1449
19613.204	0.1441
19616.322	0.1432
19619.488	0.1423
19622.634	0.1414
19625.787	0.1406
19628.914	0.1397
19632.067	0.1388
19635.243	0.1379
19638.372	0.137
19641.536	0.1362
19644.71	0.1353
19647.899	0.1344
19651.068	0.1336
19654.254	0.1327
19657.404	0.1318
19660.586	0.1309
19663.81	0.1301
19666.985	0.1292
19670.179	0.1283
19673.345	0.1274
19676.546	0.1266
19679.748	0.1256
19682.951	0.1248
19686.15	0.1239
19689.395	0.1231
19692.59	0.1222
19695.79	0.1214
19699.05	0.1204
19702.24	0.1196
19705.472	0.1187
19708.681	0.1178
19711.907	0.117
19715.187	0.1161
19718.404	0.1152
19721.608	0.1143
19724.876	0.1134
19728.104	0.1126
19731.389	0.1117
19734.642	0.1108
19737.86	0.1099
19741.144	0.109
19744.412	0.1082
19747.663	0.1073
19750.94	0.1064
19754.228	0.1056
19757.482	0.1047
19760.744	0.1038
19764.056	0.1029
19767.33	0.1021
19770.597	0.1012
19773.89	0.1003
19777.2	0.0994
19780.463	0.0985
19783.768	0.0976
19787.094	0.0968
19790.399	0.0959
19793.681	0.095
19796.976	0.0941
19800.342	0.0933
19803.654	0.0924
19806.94	0.0915
19810.276	0.0906
19813.577	0.0897
19816.912	0.0889
19820.242	0.088
19823.606	0.0871
19826.897	0.0862
19830.246	0.0853
19833.616	0.0845
19836.973	0.0836
19840.282	0.0827
19843.649	0.0818
19847.009	0.0809
19850.358	0.0801
19853.715	0.0792
19857.122	0.0783
19860.465	0.0774
19863.836	0.0765
19867.195	0.0756
19870.626	0.0748
19873.954	0.0739
19877.37	0.073
19880.752	0.0721
19884.115	0.0712
19887.525	0.0703
19890.909	0.0695
19894.324	0.0685
19897.735	0.0676
19901.128	0.0667
19904.551	0.0659
19907.949	0.065
19911.343	0.0641
19914.777	0.0632
19918.205	0.0624
19921.629	0.0615
19925.04	0.0606
19928.45	0.0597
19931.894	0.0588
19935.35	0.0579
19938.79	0.057
19942.197	0.0562
19945.68	0.0553
19949.109	0.0544
19952.573	0.0535
19955.99	0.0526
19959.481	0.0517
19962.904	0.0508
19966.388	0.0499
19969.863	0.049
19973.305	0.0481
19976.78	0.0472
19980.251	0.0463
19983.736	0.0454
19987.229	0.0445
19990.701	0.0436
19994.182	0.0427
19997.674	0.0418
20001.158	0.041
20004.691	0.0401
20008.187	0.0392
20011.669	0.0383
20015.189	0.0374
20018.696	0.0365
20022.184	0.0356
20025.723	0.0347
20029.233	0.0338
20032.73	0.0329
20036.267	0.032
20039.789	0.0312
20043.346	0.0302
20046.843	0.0294
20050.405	0.0285
20053.946	0.0275
20057.474	0.0267
20061.042	0.0258
20064.599	0.0249
20068.118	0.024
20071.663	0.0231
20075.264	0.0222
20078.801	0.0213
20082.392	0.0204
20085.94	0.0195
20089.511	0.0186
20093.078	0.0177
20096.676	0.0169
20100.209	0.016
20103.783	0.0151
20107.36	0.0142
20110.964	0.0133
20114.581	0.0124
20118.167	0.0115
20121.759	0.0106
20125.35	0.0097
20128.943	0.0088
20132.544	0.0079
20136.199	0.007
20139.795	0.0061
20143.38	0.0052
20147.007	0.0043
20150.632	0.0034
20154.261	0.0026
20157.881	0.0016
20161.485	7E-4
20165.138	-1E-4
20168.757	-1E-3
20172.454	-0.0019
20176.061	-0.0028
20179.697	-0.0037
20183.386	-0.0046
20187.019	-0.0055
20190.684	-0.0064
20194.32	-0.0073
20198.014	-0.0082
20201.655	-0.0091
20205.31	-0.01
20208.964	-0.0109
20212.644	-0.0118
20216.345	-0.0127
20219.997	-0.0136
20223.711	-0.0145
20227.404	-0.0154
20231.056	-0.0163
20234.786	-0.0172
20238.468	-0.0181
20242.171	-0.019
20245.833	-0.0199
20249.564	-0.0208
20253.249	-0.0217
20256.993	-0.0226
20260.688	-0.0235
20264.374	-0.0244
20268.112	-0.0253
20271.841	-0.0262
20275.584	-0.0272
20279.314	-0.028
20283.024	-0.029
20286.731	-0.0299
20290.467	-0.0308
20294.23	-0.0317
20297.997	-0.0326
20301.722	-0.0335
20305.466	-0.0343
20309.241	-0.0353
20312.953	-0.0362
20316.714	-0.0371
20320.517	-0.0379
20324.258	-0.0388
20328.055	-0.0397
20331.777	-0.0406
20335.602	-0.0415
20339.324	-0.0424
20343.145	-0.0433
20346.894	-0.0442
20350.688	-0.0451
20354.498	-0.0461
20358.249	-0.0469
20362.088	-0.0478
20365.882	-0.0487
20369.693	-0.0496
20373.473	-0.0505
20377.299	-0.0514
20381.094	-0.0524
20384.923	-0.0532
20388.698	-0.0541
20392.564	-0.055
20396.354	-0.0559
20400.154	-0.0568
20404.046	-0.0577
20407.869	-0.0586
20411.693	-0.0595
20415.506	-0.0604
20419.344	-0.0613
20423.187	-0.0622
20427.068	-0.0631
20430.91	-0.064
20434.776	-0.0649
20438.587	-0.0658
20442.444	-0.0667
20446.35	-0.0676
20450.191	-0.0685
20454.067	-0.0695
20457.926	-0.0704
20461.79	-0.0713
20465.714	-0.0722
20469.562	-0.0731
20473.417	-0.074
20477.348	-0.0749
20481.186	-0.0758
20485.109	-0.0767
20488.994	-0.0775
20492.882	-0.0785
20496.825	-0.0794
20499.965	-0.0801
# Instrument: I20-XAS Date: Mon, 17 Sep 2012 16:33:23 BST	
# Final ring current: 300.47278	
